* Measurement data measured by REW V5.20 Beta 59
* Source: Headset (USB-C to 3.5mm Headphone Jack Adapter), MICROPHONE (Master Volume), R, volume: 0.169
* Format: 512k Log Swept Sine, 1 sweep at -6.0 dBFS with no timing reference
* Dated: Oct 15, 2020 6:12:02 PM
* REW Settings:
*  C-weighting compensation: Off
*  Target level: 75.0 dB
* Note: ; 
* Measurement: LZ A7 - on - Blue
* Smoothing: 1/48 octave
* Frequency Step: 1/24 octave
* Start Frequency: 20.600 Hz
*
* Freq(Hz)	SPL(dB)	Phase(degrees)
20.600000	80.360451	-122.8125
21.200001	80.476562	-124.9912
21.799999	80.636543	-126.7738
22.400000	80.742058	-127.9954
23.000000	80.780426	-129.5430
23.600000	80.866753	-131.5116
24.299999	80.996239	-133.2786
25.000000	81.031631	-134.8392
25.799999	81.080925	-137.1311
26.500000	81.164474	-138.7990
27.200001	81.204346	-140.0965
28.000000	81.256699	-141.7420
29.000000	81.337997	-143.5163
30.000000	81.357719	-145.4969
30.700001	81.387466	-146.7290
31.500000	81.400612	-148.1103
32.500000	81.439804	-149.8126
33.500000	81.468178	-151.3645
34.500000	81.472961	-152.8037
35.500000	81.469513	-154.2897
36.500000	81.477058	-155.6832
37.500000	81.478821	-156.9989
38.700001	81.463242	-158.5403
40.000000	81.459557	-159.9841
41.200001	81.433716	-161.3465
42.500000	81.417534	-162.6723
43.700001	81.381607	-163.9694
45.000000	81.363518	-165.2357
46.200001	81.320221	-166.3554
47.500000	81.282341	-167.4030
48.700001	81.238556	-168.3439
50.000000	81.200562	-169.3802
51.500000	81.140633	-170.5566
53.000000	81.090256	-171.5211
54.500000	81.039299	-172.5482
56.000000	80.988770	-173.4142
58.000000	80.912315	-174.6470
60.000000	80.842941	-175.6503
61.500000	80.766266	-176.4330
63.000000	80.712425	-177.1666
65.000000	80.629173	-178.0466
67.000000	80.548073	-178.8745
69.000000	80.473206	-179.6502
71.000000	80.395546	179.6883
73.000000	80.308517	178.9956
75.000000	80.230553	178.3501
77.500000	80.131363	177.6496
80.000000	80.032288	177.0482
82.500000	79.940933	176.4869
85.000000	79.846420	175.9516
87.500000	79.760956	175.5480
90.000000	79.643631	174.9470
92.500000	79.572075	174.6223
95.000000	79.489258	174.3022
97.500000	79.402000	173.9944
100.000000	79.321159	173.6627
103.000000	79.219994	173.3876
106.000000	79.132782	173.1018
109.000000	79.039497	172.8669
112.000000	78.952339	172.6873
115.000000	78.867363	172.5026
118.000000	78.786552	172.3928
122.000000	78.674759	172.2374
125.000000	78.590958	172.1873
128.000000	78.520988	172.0872
132.000000	78.427292	172.0373
136.000000	78.331207	172.0355
140.000000	78.242821	172.0323
145.000000	78.136620	172.1129
150.000000	78.035721	172.1302
155.000000	77.934616	172.2410
160.000000	77.844139	172.3994
165.000000	77.755615	172.5161
170.000000	77.677620	172.6923
175.000000	77.593887	172.9024
180.000000	77.512909	173.0447
185.000000	77.443100	173.2997
190.000000	77.373734	173.5045
195.000000	77.309807	173.7510
200.000000	77.246689	173.9877
206.000000	77.173409	174.2953
212.000000	77.104866	174.6170
218.000000	77.040825	174.9326
224.000000	76.979553	175.2726
230.000000	76.923790	175.5992
236.000000	76.862289	175.9651
243.000000	76.801544	176.3633
250.000000	76.744949	176.7861
258.000000	76.684700	177.2390
265.000000	76.632439	177.6624
272.000000	76.583733	178.0742
280.000000	76.530182	178.5635
290.000000	76.468658	179.1710
300.000000	76.408951	179.7762
307.000000	76.374062	-179.7914
315.000000	76.335541	-179.3065
325.000000	76.288841	-178.7024
335.000000	76.244232	-178.0787
345.000000	76.203835	-177.4350
355.000000	76.166008	-176.8407
365.000000	76.129814	-176.2090
375.000000	76.096451	-175.6150
387.000000	76.063950	-174.8551
400.000000	76.024910	-174.0638
412.000000	75.995850	-173.3236
425.000000	75.965523	-172.5206
437.000000	75.941765	-171.7894
450.000000	75.920151	-170.9839
462.000000	75.901764	-170.2469
475.000000	75.881836	-169.4444
487.000000	75.867760	-168.6953
500.000000	75.855125	-167.8833
515.000000	75.840630	-166.9470
530.000000	75.832565	-166.0149
545.000000	75.827049	-165.0575
560.000000	75.823441	-164.1170
580.000000	75.825691	-162.8237
600.000000	75.832382	-161.5399
615.000000	75.841522	-160.5710
630.000000	75.855042	-159.6053
650.000000	75.877411	-158.2872
670.000000	75.907181	-156.9642
690.000000	75.942863	-155.6272
710.000000	75.988266	-154.2808
730.000000	76.041504	-152.9159
750.000000	76.101494	-151.5559
775.000000	76.191574	-149.8623
800.000000	76.298088	-148.1521
825.000000	76.420349	-146.4592
850.000000	76.558990	-144.8079
875.000000	76.718796	-143.1908
900.000000	76.895836	-141.6375
925.000000	77.093781	-140.1841
950.000000	77.307945	-138.8872
975.000000	77.534355	-137.8003
1000.000000	77.736153	-137.0256
1030.000000	77.921181	-135.7969
1060.000000	78.177841	-134.5443
1090.000000	78.414154	-133.5967
1120.000000	78.632042	-132.5799
1150.000000	78.863884	-131.4812
1180.000000	79.116112	-130.4272
1220.000000	79.470245	-129.1929
1250.000000	79.740303	-128.3836
1280.000000	80.010590	-127.6714
1320.000000	80.372704	-126.7740
1360.000000	80.738441	-125.9577
1400.000000	81.113792	-125.2122
1450.000000	81.598267	-124.3663
1500.000000	82.108383	-123.6463
1550.000000	82.651932	-123.0994
1600.000000	83.231194	-122.7786
1650.000000	83.850067	-122.7611
1700.000000	84.508133	-123.1374
1750.000000	85.203186	-124.0205
1800.000000	85.927109	-125.5322
1850.000000	86.664513	-127.8220
1900.000000	87.390366	-131.0389
1950.000000	88.060768	-135.2916
2000.000000	88.619995	-140.5756
2060.000000	89.058464	-147.9943
2120.000000	89.174728	-155.8581
2180.000000	88.974205	-163.2213
2240.000000	88.540810	-169.3907
2300.000000	87.979736	-174.1142
2360.000000	87.378242	-177.4952
2430.000000	86.697281	179.9448
2500.000000	86.078896	178.4972
2580.000000	85.469902	177.7875
2650.000000	85.024033	177.7127
2720.000000	84.652176	177.9833
2800.000000	84.313881	178.5693
2900.000000	84.008347	179.5440
3000.000000	83.834068	-179.3655
3070.000000	83.807426	-178.6758
3150.000000	83.875702	-178.2448
3250.000000	84.074097	-178.6554
3350.000000	84.330727	179.5113
3450.000000	84.538589	176.0185
3550.000000	84.564209	171.0093
3650.000000	84.290230	165.1380
3750.000000	83.678177	159.4430
3870.000000	82.581192	154.1500
4000.000000	81.157860	151.1070
4120.000000	79.805061	150.7143
4250.000000	78.415100	152.3709
4370.000000	77.252693	155.3429
4500.000000	76.133850	159.7383
4620.000000	75.246231	164.6094
4750.000000	74.438416	170.4988
4870.000000	73.834717	176.4004
5000.000000	73.333298	-176.8889
5150.000000	72.957962	-168.8888
5300.000000	72.806656	-160.8229
5450.000000	72.887062	-152.9352
5600.000000	73.221901	-145.5787
5800.000000	74.072784	-137.7449
6000.000000	74.971367	-135.0713
6150.000000	75.150131	-129.8050
6300.000000	76.693672	-126.0136
6500.000000	78.226120	-132.9154
6700.000000	78.295631	-142.9914
6900.000000	77.344238	-147.9583
7100.000000	76.363556	-146.3979
7300.000000	75.902832	-141.1151
7500.000000	76.076546	-134.7822
7750.000000	77.225456	-128.5680
8000.000000	79.184189	-128.6912
8250.000000	81.056618	-139.7112
8500.000000	81.259682	-158.0051
8750.000000	79.906754	-170.6590
9000.000000	78.421860	-175.6786
9250.000000	77.315376	-177.4031
9500.000000	76.539291	-177.7018
9750.000000	76.304398	-178.3384
10000.000000	76.285416	176.5848
10300.000000	75.457497	165.8335
10600.000000	73.528206	158.7006
10900.000000	71.511642	158.4354
11200.000000	70.055527	162.3727
11500.000000	69.301620	167.7616
11800.000000	69.305298	172.8787
12200.000000	70.500511	175.9178
12500.000000	72.209564	172.0692
12800.000000	74.063095	158.8478
13200.000000	74.645744	129.3005
13600.000000	73.116882	107.1150
14000.000000	72.091743	93.3507
14500.000000	72.170837	70.6711
15000.000000	70.948074	31.7299
15500.000000	66.880836	1.4265
16000.000000	64.092392	-15.9913
16500.000000	61.657593	-54.5763
17000.000000	58.391045	-70.6926
17500.000000	58.822777	-97.6564
18000.000000	60.542778	-144.8768
18500.000000	61.470512	147.7597
19000.000000	59.726768	72.2587
19500.000000	56.890701	-0.4839
