* Measurement data measured by REW V5.20 Beta 59
* Source: Headset (USB-C to 3.5mm Headphone Jack Adapter), MICROPHONE (Master Volume), R, volume: 0.169
* Format: 512k Log Swept Sine, 1 sweep at -6.0 dBFS with no timing reference
* Dated: Oct 15, 2020 6:08:52 PM
* REW Settings:
*  C-weighting compensation: Off
*  Target level: 75.0 dB
* Note: ; 
* Measurement: LZ A7 - on - Gold
* Smoothing: 1/48 octave
* Frequency Step: 1/24 octave
* Start Frequency: 20.600 Hz
*
* Freq(Hz)	SPL(dB)	Phase(degrees)
20.600000	80.319466	-123.6579
21.200001	80.445206	-125.4128
21.799999	80.554459	-127.0761
22.400000	80.644058	-128.9333
23.000000	80.753403	-130.5341
23.600000	80.826721	-131.8132
24.299999	80.883530	-133.6731
25.000000	80.958038	-135.5491
25.799999	81.020805	-137.4205
26.500000	81.088791	-138.8396
27.200001	81.151024	-140.3055
28.000000	81.208694	-142.0318
29.000000	81.223427	-144.2889
30.000000	81.277512	-146.0740
30.700001	81.311935	-147.3340
31.500000	81.352142	-148.6429
32.500000	81.352219	-150.4532
33.500000	81.372574	-151.9450
34.500000	81.379456	-153.5990
35.500000	81.404526	-154.9865
36.500000	81.396179	-156.3354
37.500000	81.382050	-157.7033
38.700001	81.377846	-159.1006
40.000000	81.355949	-160.8190
41.200001	81.331833	-162.0876
42.500000	81.326973	-163.4208
43.700001	81.286362	-164.9208
45.000000	81.253716	-165.9284
46.200001	81.226662	-166.9987
47.500000	81.193314	-168.0663
48.700001	81.144386	-169.1143
50.000000	81.100128	-170.0011
51.500000	81.035408	-171.2940
53.000000	80.993484	-172.2321
54.500000	80.937241	-173.3033
56.000000	80.867630	-174.1484
58.000000	80.799057	-175.3352
60.000000	80.746178	-176.3416
61.500000	80.664749	-177.1823
63.000000	80.599884	-177.8636
65.000000	80.517502	-178.8159
67.000000	80.433403	-179.5900
69.000000	80.352287	179.6319
71.000000	80.272148	178.9280
73.000000	80.197754	177.8979
75.000000	80.108292	177.6054
77.500000	80.006798	176.9268
80.000000	79.906960	176.2542
82.500000	79.822220	175.6454
85.000000	79.720047	175.1364
87.500000	79.654907	174.3564
90.000000	79.554062	173.9839
92.500000	79.452164	173.7702
95.000000	79.366295	173.4487
97.500000	79.283646	173.0479
100.000000	79.208725	172.7830
103.000000	79.100670	172.4489
106.000000	78.995293	172.2009
109.000000	78.902870	171.9080
112.000000	78.822578	171.7466
115.000000	78.738503	171.5519
118.000000	78.659325	171.4098
122.000000	78.552505	171.2079
125.000000	78.469818	171.1395
128.000000	78.395447	171.0528
132.000000	78.294128	171.0056
136.000000	78.203789	170.9342
140.000000	78.121269	170.8925
145.000000	78.013077	170.8473
150.000000	77.907288	170.9817
155.000000	77.810089	171.0359
160.000000	77.718826	171.1431
165.000000	77.626266	171.2178
170.000000	77.548897	171.3727
175.000000	77.471840	171.5543
180.000000	77.398094	171.6532
185.000000	77.318954	171.8860
190.000000	77.250023	172.0798
195.000000	77.182907	172.2904
200.000000	77.125870	172.5081
206.000000	77.051674	172.7602
212.000000	76.982498	173.0351
218.000000	76.919250	173.3156
224.000000	76.857025	173.5983
230.000000	76.802063	173.8936
236.000000	76.748695	174.2242
243.000000	76.680046	174.5649
250.000000	76.624474	174.9262
258.000000	76.562935	175.3384
265.000000	76.510193	175.7065
272.000000	76.461967	176.0651
280.000000	76.413071	176.5129
290.000000	76.351860	177.0486
300.000000	76.301262	177.5863
307.000000	76.256508	177.9713
315.000000	76.219215	178.4087
325.000000	76.171532	178.9527
335.000000	76.126556	179.4900
345.000000	76.084335	-179.9961
355.000000	76.049919	-179.4336
365.000000	76.015579	-178.8936
375.000000	75.983772	-178.3429
387.000000	75.945786	-177.7055
400.000000	75.912231	-177.0094
412.000000	75.881348	-176.3643
425.000000	75.852684	-175.6519
437.000000	75.826675	-175.0163
450.000000	75.804443	-174.3150
462.000000	75.787766	-173.6655
475.000000	75.764435	-172.9489
487.000000	75.753311	-172.3176
500.000000	75.738861	-171.6089
515.000000	75.728073	-170.8012
530.000000	75.714851	-169.9774
545.000000	75.711098	-169.1529
560.000000	75.707825	-168.3292
580.000000	75.707329	-167.2399
600.000000	75.715347	-166.1217
615.000000	75.722443	-165.2768
630.000000	75.734909	-164.4365
650.000000	75.754349	-163.3161
670.000000	75.782425	-162.1829
690.000000	75.818771	-161.0347
710.000000	75.859474	-159.8823
730.000000	75.907654	-158.7190
750.000000	75.964821	-157.5668
775.000000	76.049278	-156.1034
800.000000	76.148956	-154.6597
825.000000	76.263954	-153.2357
850.000000	76.396660	-151.8454
875.000000	76.546066	-150.5087
900.000000	76.716034	-149.2330
925.000000	76.903168	-148.0683
950.000000	77.106339	-147.0709
975.000000	77.319336	-146.3490
1000.000000	77.484215	-145.8791
1030.000000	77.662766	-144.8042
1060.000000	77.905975	-143.9830
1090.000000	78.118347	-143.3735
1120.000000	78.322189	-142.6543
1150.000000	78.547958	-141.9342
1180.000000	78.794624	-141.3130
1220.000000	79.130714	-140.7287
1250.000000	79.383377	-140.4421
1280.000000	79.632858	-140.2741
1320.000000	79.959335	-140.1858
1360.000000	80.280869	-140.2425
1400.000000	80.597977	-140.4169
1450.000000	80.991867	-140.8394
1500.000000	81.383377	-141.4778
1550.000000	81.769318	-142.3710
1600.000000	82.147865	-143.5481
1650.000000	82.510384	-145.0405
1700.000000	82.850136	-146.8635
1750.000000	83.153702	-149.0065
1800.000000	83.409874	-151.4467
1850.000000	83.606613	-154.1349
1900.000000	83.733826	-156.9953
1950.000000	83.785522	-159.9117
2000.000000	83.762039	-162.7658
2060.000000	83.640137	-165.9485
2120.000000	83.435677	-168.7066
2180.000000	83.176346	-170.9445
2240.000000	82.890495	-172.6439
2300.000000	82.598549	-173.8414
2360.000000	82.317978	-174.6200
2430.000000	82.018997	-175.0846
2500.000000	81.760017	-175.2032
2580.000000	81.516754	-175.0365
2650.000000	81.351242	-174.7409
2720.000000	81.224869	-174.3466
2800.000000	81.130753	-173.8495
2900.000000	81.082024	-173.2536
3000.000000	81.116241	-172.7778
3070.000000	81.205330	-172.6452
3150.000000	81.373627	-172.9737
3250.000000	81.642990	-174.4409
3350.000000	81.897530	-177.3628
3450.000000	82.023285	178.2414
3550.000000	81.905991	172.7740
3650.000000	81.474838	167.0766
3750.000000	80.750160	162.0934
3870.000000	79.611954	157.9424
4000.000000	78.235542	156.0004
4120.000000	76.973038	156.3166
4250.000000	75.696327	158.4520
4370.000000	74.630249	161.6575
4500.000000	73.617096	166.1584
4620.000000	72.814789	171.0095
4750.000000	72.086372	176.8568
4870.000000	71.546730	-177.3479
5000.000000	71.109253	-170.7732
5150.000000	70.797455	-162.9825
5300.000000	70.698997	-155.1206
5450.000000	70.829979	-147.4594
5600.000000	71.198181	-140.3577
5800.000000	72.073723	-132.8645
6000.000000	72.908424	-130.4146
6150.000000	73.124664	-124.3941
6300.000000	74.693329	-120.5270
6500.000000	76.332718	-126.5661
6700.000000	76.625969	-136.4236
6900.000000	75.877388	-142.0032
7100.000000	75.029518	-141.2665
7300.000000	74.657257	-136.8060
7500.000000	74.906227	-131.2316
7750.000000	76.107185	-126.1575
8000.000000	77.997070	-127.1076
8250.000000	79.852631	-137.3740
8500.000000	80.408852	-155.0844
8750.000000	79.470726	-170.2370
9000.000000	78.018478	-179.4502
9250.000000	76.524506	175.8799
9500.000000	75.321289	174.8929
9750.000000	74.766129	174.1368
10000.000000	74.380005	169.4087
10300.000000	73.176537	160.9361
10600.000000	71.224419	156.6920
10900.000000	69.387329	158.0077
11200.000000	68.121559	162.4081
11500.000000	67.518791	167.6098
11800.000000	67.603699	172.1801
12200.000000	68.761459	174.2362
12500.000000	70.291794	170.3371
12800.000000	71.937225	159.0432
13200.000000	72.951302	134.3966
13600.000000	72.417542	111.3021
14000.000000	71.848801	91.9377
14500.000000	71.207390	61.8337
15000.000000	68.535881	27.1084
15500.000000	64.715080	4.8068
16000.000000	62.865334	-11.9198
16500.000000	60.515335	-52.8898
17000.000000	57.983788	-70.3539
17500.000000	58.937138	-102.2643
18000.000000	60.312214	-155.6538
18500.000000	60.005722	138.6337
19000.000000	58.194794	72.8680
19500.000000	56.307919	3.4296
