* Measurement data measured by REW V5.20 Beta 13
* Source: Input device not selected, no input selected, L, volume: no control
* Format: 1M Log Swept Sine, 1 sweep at -20.0 dBFS  With no timing reference
* Dated: Jul 11, 2019 5:29:45 PM
* REW Settings:
*  C-weighting compensation: Off
*  Target level: 75.0 dB
* Note: ; 
* Measurement: qdc Anole VX - R - 001
* Smoothing: 1/48 octave
* Frequency Step: 1/24 octave
* Start Frequency: 20.000 Hz
*
* Freq(Hz)	SPL(dB)	Phase(degrees)
20.000000	83.141685	-1.3388
20.600000	83.195442	-1.8594
21.200001	83.223412	-2.3422
21.799999	83.220467	-2.9390
22.400000	83.188347	-3.5783
23.000000	83.149170	-4.2062
23.600000	83.119507	-4.8672
24.299999	83.097900	-5.7139
25.000000	83.087952	-6.5892
25.799999	83.088966	-7.5647
26.500000	83.094673	-8.3424
27.200001	83.105804	-9.0150
28.000000	83.124062	-9.7371
29.000000	83.123619	-10.6463
30.000000	83.096817	-11.4028
30.700001	83.083740	-11.9225
31.500000	83.065842	-12.6228
32.500000	83.034912	-13.5301
33.500000	83.015373	-14.4733
34.500000	82.992813	-15.4274
35.500000	82.976959	-16.2260
36.500000	82.978760	-16.9924
37.500000	82.962570	-17.7747
38.700001	82.940849	-18.4399
40.000000	82.926117	-19.4479
41.200001	82.882523	-20.2045
42.500000	82.812111	-21.3065
43.700001	82.799942	-21.3059
45.000000	82.875305	-23.3721
46.200001	82.614029	-23.5764
47.500000	82.832481	-23.7166
48.700001	82.729126	-25.6915
50.000000	82.648743	-25.7662
51.500000	82.649071	-26.9407
53.000000	82.610748	-27.8297
54.500000	82.580360	-28.7104
56.000000	82.549644	-29.7626
58.000000	82.472275	-30.8406
60.000000	82.414444	-31.1646
61.500000	82.420883	-32.7012
63.000000	82.341225	-33.8065
65.000000	82.264206	-34.6997
67.000000	82.250160	-35.9420
69.000000	82.205109	-36.8605
71.000000	82.149597	-37.8848
73.000000	82.092392	-38.8703
75.000000	82.044594	-39.9073
77.500000	81.991478	-41.2064
80.000000	81.941277	-42.3220
82.500000	81.866051	-43.5756
85.000000	81.802246	-44.7232
87.500000	81.750298	-45.9226
90.000000	81.675369	-47.1077
92.500000	81.602890	-48.2022
95.000000	81.532036	-49.3169
97.500000	81.457970	-50.6254
100.000000	81.371925	-51.3773
103.000000	81.311325	-52.6588
106.000000	81.218712	-54.0999
109.000000	81.117783	-55.4447
112.000000	81.040009	-56.7192
115.000000	80.949020	-57.9280
118.000000	80.848915	-59.0375
122.000000	80.723694	-60.5663
125.000000	80.624405	-61.7212
128.000000	80.526985	-62.8168
132.000000	80.397873	-64.2258
136.000000	80.272255	-65.5668
140.000000	80.148163	-67.0153
145.000000	79.981758	-68.5483
150.000000	79.816422	-70.2375
155.000000	79.684723	-71.7253
160.000000	79.499741	-73.2407
165.000000	79.372650	-74.5899
170.000000	79.224327	-75.9718
175.000000	79.057602	-77.2986
180.000000	78.918175	-79.0828
185.000000	78.772560	-79.9310
190.000000	78.638885	-80.9990
195.000000	78.514786	-82.2437
200.000000	78.392914	-83.4705
206.000000	78.218002	-84.7210
212.000000	78.080559	-85.9248
218.000000	77.939537	-87.2012
224.000000	77.790611	-88.4676
230.000000	77.633911	-89.5824
236.000000	77.513824	-90.6677
243.000000	77.358200	-91.7710
250.000000	77.219650	-92.9138
258.000000	77.102135	-93.8961
265.000000	77.024162	-95.1700
272.000000	76.950928	-96.3683
280.000000	76.839188	-98.0921
290.000000	76.680382	-99.9588
300.000000	76.468933	-101.5839
307.000000	76.404572	-103.0075
315.000000	76.292870	-104.2315
325.000000	76.114693	-105.7075
335.000000	76.003540	-107.1349
345.000000	75.895035	-108.6513
355.000000	75.767815	-109.9460
365.000000	75.673103	-111.3373
375.000000	75.560516	-112.5516
387.000000	75.461594	-114.1085
400.000000	75.353180	-115.8211
412.000000	75.265686	-117.1645
425.000000	75.178444	-118.7612
437.000000	75.112785	-119.9560
450.000000	75.066925	-121.5663
462.000000	75.013596	-122.8889
475.000000	74.975128	-124.2223
487.000000	74.961311	-125.7722
500.000000	74.904106	-127.0343
515.000000	74.903740	-128.7274
530.000000	74.882431	-130.2657
545.000000	74.872040	-131.6950
560.000000	74.886726	-133.3555
580.000000	74.899849	-135.0623
600.000000	74.975060	-137.1399
615.000000	75.032051	-138.9988
630.000000	75.048157	-140.7699
650.000000	75.096718	-142.9576
670.000000	75.145424	-145.2081
690.000000	75.167274	-147.2561
710.000000	75.182968	-149.3651
730.000000	75.237091	-151.0462
750.000000	75.250328	-152.8392
775.000000	75.345909	-154.7341
800.000000	75.448662	-156.6952
825.000000	75.617516	-158.5867
850.000000	75.800583	-160.6822
875.000000	75.986603	-162.7101
900.000000	76.167969	-164.7391
925.000000	76.392830	-166.9664
950.000000	76.592621	-169.1924
975.000000	76.825340	-171.4740
1000.000000	77.022415	-174.0887
1030.000000	77.307068	-176.5519
1060.000000	77.598267	-179.4664
1090.000000	77.881691	177.4991
1120.000000	78.169800	174.3030
1150.000000	78.460869	170.8360
1180.000000	78.721710	167.4371
1220.000000	79.030205	162.5135
1250.000000	79.236862	158.7590
1280.000000	79.409447	155.0351
1320.000000	79.571518	150.1075
1360.000000	79.691368	145.3977
1400.000000	79.779732	140.7157
1450.000000	79.871155	135.3283
1500.000000	79.930763	130.2542
1550.000000	79.965721	125.5757
1600.000000	80.007744	121.2114
1650.000000	80.042694	117.0121
1700.000000	80.102501	113.0205
1750.000000	80.156654	109.1919
1800.000000	80.243370	105.3991
1850.000000	80.330246	101.8687
1900.000000	80.431076	98.2680
1950.000000	80.524109	94.7068
2000.000000	80.650337	90.9449
2060.000000	80.739738	86.6629
2120.000000	80.838585	82.3163
2180.000000	80.926239	77.8525
2240.000000	80.976387	73.3074
2300.000000	81.010178	68.8958
2360.000000	80.993256	64.4938
2430.000000	80.921013	59.7126
2500.000000	80.772301	55.2878
2580.000000	80.587868	50.8048
2650.000000	80.440895	47.5383
2720.000000	80.346649	44.9521
2800.000000	80.316444	42.3611
2900.000000	80.437889	38.8413
3000.000000	80.593338	34.4785
3070.000000	80.676865	31.2367
3150.000000	80.700577	27.6578
3250.000000	80.696152	23.4515
3350.000000	80.689476	19.6536
3450.000000	80.694435	16.2772
3550.000000	80.731827	13.0495
3650.000000	80.787285	10.1974
3750.000000	80.905617	7.4476
3870.000000	81.146111	4.1771
4000.000000	81.522034	-0.1661
4120.000000	81.964806	-5.3389
4250.000000	82.364548	-13.0103
4370.000000	82.425751	-22.2365
4500.000000	81.899582	-32.9999
4620.000000	80.847923	-41.3240
4750.000000	79.283600	-46.6415
4870.000000	77.721214	-47.5944
5000.000000	76.157486	-44.3856
5150.000000	74.653824	-35.8949
5300.000000	73.973541	-22.6035
5450.000000	74.455841	-7.6594
5600.000000	76.001991	4.2946
5800.000000	79.098389	11.4465
6000.000000	82.227089	5.9921
6150.000000	83.781311	-4.5551
6300.000000	84.388931	-16.0176
6500.000000	84.299995	-27.1212
6700.000000	84.128326	-33.2692
6900.000000	84.295502	-37.7106
7100.000000	84.827980	-43.5283
7300.000000	85.389847	-53.4347
7500.000000	85.318298	-67.9218
7750.000000	83.465286	-84.7207
8000.000000	80.872543	-92.8151
8250.000000	78.251053	-92.2635
8500.000000	76.183884	-86.9295
8750.000000	74.610558	-79.1339
9000.000000	73.583206	-70.1857
9250.000000	72.982910	-61.4282
9500.000000	72.832230	-53.6593
9750.000000	72.807159	-49.9058
10000.000000	72.196930	-49.8203
10300.000000	70.031036	-43.3699
10600.000000	68.492844	-23.3261
10900.000000	68.754181	-1.6282
11200.000000	70.003838	15.4478
11500.000000	71.702759	27.7015
11800.000000	73.577759	34.8389
12200.000000	75.680786	36.6527
12500.000000	76.710251	35.2546
12800.000000	77.326401	33.8663
13200.000000	77.972374	32.2980
13600.000000	78.401596	29.1334
14000.000000	78.545753	24.4631
14500.000000	78.207367	16.3778
15000.000000	76.596634	7.5519
15500.000000	74.164444	7.1463
16000.000000	71.789436	12.9073
16500.000000	70.122314	25.0413
17000.000000	69.498489	37.7679
17500.000000	69.950562	47.0158
18000.000000	71.270210	45.6532
18500.000000	71.427544	27.0581
19000.000000	68.937759	7.8254
19500.000000	66.009727	-3.1429
