* Measurement data measured by REW V5.20 Beta 13
* Source: Input device not selected, no input selected, L, volume: no control
* Format: 1M Log Swept Sine, 1 sweep at -20.0 dBFS  With no timing reference
* Dated: Jul 11, 2019 5:23:21 PM
* REW Settings:
*  C-weighting compensation: Off
*  Target level: 75.0 dB
* Note: ; 
* Measurement: qdc Anole VX - R - 000
* Smoothing: 1/48 octave
* Frequency Step: 1/24 octave
* Start Frequency: 20.000 Hz
*
* Freq(Hz)	SPL(dB)	Phase(degrees)
20.000000	83.334503	-0.4608
20.600000	83.382027	-1.0189
21.200001	83.395096	-1.4656
21.799999	83.385330	-1.9579
22.400000	83.357529	-2.5080
23.000000	83.327240	-3.0937
23.600000	83.306564	-3.7509
24.299999	83.291672	-4.6209
25.000000	83.283997	-5.5026
25.799999	83.291206	-6.4632
26.500000	83.301468	-7.2715
27.200001	83.304878	-7.9724
28.000000	83.310440	-8.6215
29.000000	83.313271	-9.4240
30.000000	83.285561	-10.1840
30.700001	83.267075	-10.6648
31.500000	83.254105	-11.3042
32.500000	83.230835	-12.2235
33.500000	83.208565	-13.0967
34.500000	83.204803	-13.9423
35.500000	83.194702	-14.8060
36.500000	83.175125	-15.4665
37.500000	83.170532	-16.1328
38.700001	83.129387	-16.9572
40.000000	83.096497	-17.8406
41.200001	83.052689	-18.6451
42.500000	83.036598	-19.6725
43.700001	82.995216	-20.2444
45.000000	83.038750	-21.1360
46.200001	82.976868	-21.8534
47.500000	82.983383	-22.4670
48.700001	82.933685	-23.3801
50.000000	82.879616	-24.1415
51.500000	82.848145	-25.1182
53.000000	82.817017	-26.1413
54.500000	82.784142	-26.9008
56.000000	82.761200	-27.7350
58.000000	82.699776	-28.7304
60.000000	82.572662	-29.2614
61.500000	82.616081	-30.4467
63.000000	82.552643	-31.3806
65.000000	82.494461	-32.5259
67.000000	82.477684	-33.4030
69.000000	82.428246	-34.3598
71.000000	82.385391	-35.3434
73.000000	82.332031	-36.3036
75.000000	82.284447	-37.1748
77.500000	82.219200	-38.3081
80.000000	82.164207	-39.4228
82.500000	82.098648	-40.6737
85.000000	82.019188	-41.7925
87.500000	81.969315	-42.8056
90.000000	81.898575	-43.8946
92.500000	81.841850	-44.9835
95.000000	81.771126	-46.1585
97.500000	81.702866	-47.1074
100.000000	81.640640	-48.1192
103.000000	81.546387	-49.2861
106.000000	81.448708	-50.5203
109.000000	81.364532	-51.6778
112.000000	81.278564	-52.7543
115.000000	81.176117	-53.8895
118.000000	81.084671	-55.0868
122.000000	80.964569	-56.4026
125.000000	80.874619	-57.4744
128.000000	80.767738	-58.5025
132.000000	80.650032	-59.8490
136.000000	80.519051	-61.0597
140.000000	80.383850	-62.2732
145.000000	80.226540	-63.8438
150.000000	80.072136	-65.2139
155.000000	79.933395	-66.5592
160.000000	79.769699	-67.8645
165.000000	79.619026	-69.0707
170.000000	79.477631	-70.2551
175.000000	79.329117	-71.5549
180.000000	79.209473	-72.2477
185.000000	79.035065	-73.7220
190.000000	78.915924	-74.7454
195.000000	78.754646	-75.8164
200.000000	78.633720	-76.8947
206.000000	78.484657	-77.9898
212.000000	78.348038	-79.0388
218.000000	78.182198	-79.8439
224.000000	78.053078	-80.9201
230.000000	77.928925	-81.8611
236.000000	77.803940	-82.8568
243.000000	77.660431	-83.8327
250.000000	77.517189	-85.0194
258.000000	77.401550	-86.2074
265.000000	77.262527	-87.2310
272.000000	77.132233	-88.2399
280.000000	77.017014	-89.3561
290.000000	76.849640	-90.5682
300.000000	76.705338	-91.5698
307.000000	76.612930	-92.6834
315.000000	76.500961	-93.7948
325.000000	76.383682	-95.0065
335.000000	76.246773	-96.1790
345.000000	76.134743	-97.2667
355.000000	75.990433	-98.3061
365.000000	75.898628	-99.3943
375.000000	75.818855	-100.2320
387.000000	75.707344	-101.4459
400.000000	75.592888	-102.5264
412.000000	75.519348	-103.6867
425.000000	75.425186	-104.8284
437.000000	75.363480	-105.8966
450.000000	75.302605	-106.8339
462.000000	75.226364	-107.9190
475.000000	75.191376	-108.7243
487.000000	75.165863	-109.6161
500.000000	75.136162	-110.8035
515.000000	75.071533	-111.9798
530.000000	75.082848	-112.5756
545.000000	75.079079	-113.7773
560.000000	75.106354	-114.6117
580.000000	75.184853	-116.1961
600.000000	75.200417	-117.8803
615.000000	75.236916	-118.9883
630.000000	75.271057	-120.2322
650.000000	75.280952	-121.6006
670.000000	75.298149	-123.0915
690.000000	75.336082	-124.6327
710.000000	75.395370	-126.0914
730.000000	75.391861	-127.1218
750.000000	75.428040	-128.3132
775.000000	75.509338	-129.2735
800.000000	75.641342	-130.1987
825.000000	75.800217	-131.2971
850.000000	75.986450	-132.4927
875.000000	76.186020	-133.5784
900.000000	76.373009	-134.7256
925.000000	76.588081	-136.3106
950.000000	76.780083	-137.6060
975.000000	76.998306	-138.9728
1000.000000	77.178444	-140.6517
1030.000000	77.504517	-142.0309
1060.000000	77.789421	-143.9521
1090.000000	78.096283	-145.9935
1120.000000	78.394966	-148.2547
1150.000000	78.678886	-150.5871
1180.000000	78.936890	-153.0738
1220.000000	79.262596	-156.6557
1250.000000	79.452103	-159.3244
1280.000000	79.631752	-162.1333
1320.000000	79.823456	-165.7462
1360.000000	79.958427	-169.1863
1400.000000	80.047607	-172.4297
1450.000000	80.125839	-176.3009
1500.000000	80.171440	-179.5926
1550.000000	80.218155	177.3246
1600.000000	80.267830	174.4834
1650.000000	80.299088	171.9760
1700.000000	80.338898	169.6337
1750.000000	80.410721	167.4813
1800.000000	80.486298	165.4802
1850.000000	80.569954	163.4878
1900.000000	80.668022	161.5176
1950.000000	80.749084	159.6748
2000.000000	80.855453	157.5109
2060.000000	80.968910	155.3134
2120.000000	81.074234	152.8692
2180.000000	81.163284	150.4225
2240.000000	81.206787	147.9403
2300.000000	81.234787	145.5090
2360.000000	81.208427	143.1402
2430.000000	81.131691	140.6875
2500.000000	81.012283	138.5026
2580.000000	80.823807	136.7113
2650.000000	80.646576	135.8083
2720.000000	80.540794	135.6157
2800.000000	80.521797	135.5736
2900.000000	80.637749	135.5227
3000.000000	80.783356	134.7538
3070.000000	80.865860	133.7384
3150.000000	80.903999	132.7794
3250.000000	80.914978	131.9042
3350.000000	80.901321	131.4309
3450.000000	80.922241	131.2665
3550.000000	80.946304	131.3022
3650.000000	80.992043	131.5892
3750.000000	81.083092	132.0850
3870.000000	81.297119	132.6981
4000.000000	81.646561	132.8935
4120.000000	82.051598	131.6727
4250.000000	82.422348	128.5157
4370.000000	82.493439	123.5761
4500.000000	82.009277	117.2523
4620.000000	80.977081	113.0550
4750.000000	79.480255	112.0703
4870.000000	78.010063	115.0316
5000.000000	76.568001	121.9814
5150.000000	75.228027	134.3216
5300.000000	74.539139	150.0446
5450.000000	74.765038	166.8955
5600.000000	75.862968	-177.9343
5800.000000	78.126358	-164.3827
6000.000000	80.649872	-159.7456
6150.000000	82.118599	-162.0303
6300.000000	82.843735	-166.7025
6500.000000	82.799828	-170.7731
6700.000000	82.380363	-169.8105
6900.000000	82.150108	-165.7540
7100.000000	82.302109	-160.8666
7300.000000	82.787582	-157.1775
7500.000000	83.440155	-156.7426
7750.000000	83.577011	-162.6051
8000.000000	82.447166	-170.3930
8250.000000	79.939583	-170.6210
8500.000000	77.395317	-162.3708
8750.000000	75.303673	-148.6679
9000.000000	73.808235	-132.3266
9250.000000	72.911537	-115.1749
9500.000000	72.481949	-99.0083
9750.000000	72.392319	-86.3134
10000.000000	71.822868	-78.5845
10300.000000	69.585625	-65.3087
10600.000000	67.348091	-39.2662
10900.000000	66.633102	-7.5797
11200.000000	66.992851	21.8793
11500.000000	68.054733	47.3227
11800.000000	69.536850	69.2189
12200.000000	71.364578	90.8538
12500.000000	72.418816	103.3356
12800.000000	73.153320	114.8559
13200.000000	73.843842	129.5252
13600.000000	74.310112	142.9696
14000.000000	74.547134	155.0127
14500.000000	74.596252	167.9116
15000.000000	73.606277	176.0863
15500.000000	71.064026	-169.6688
16000.000000	68.237320	-146.3306
16500.000000	66.175766	-115.5926
17000.000000	64.962357	-82.6473
17500.000000	64.696495	-50.4429
18000.000000	65.606628	-23.2726
18500.000000	67.184532	-7.9064
19000.000000	67.836052	-9.4344
19500.000000	66.079254	-15.7755
