* Measurement data measured by REW V5.20 Beta 13
* Source: Input device not selected, no input selected, L, volume: no control
* Format: 1M Log Swept Sine, 1 sweep at -20.0 dBFS  With no timing reference
* Dated: Jul 11, 2019 5:28:47 PM
* REW Settings:
*  C-weighting compensation: Off
*  Target level: 75.0 dB
* Note: ; 
* Measurement: qdc Anole VX - R - 010
* Smoothing: 1/48 octave
* Frequency Step: 1/24 octave
* Start Frequency: 20.000 Hz
*
* Freq(Hz)	SPL(dB)	Phase(degrees)
20.000000	83.117432	-0.6209
20.600000	83.175484	-1.1795
21.200001	83.187447	-1.6663
21.799999	83.172302	-2.1251
22.400000	83.150581	-2.6306
23.000000	83.127769	-3.2627
23.600000	83.099281	-3.9966
24.299999	83.067184	-4.8384
25.000000	83.059547	-5.6362
25.799999	83.074104	-6.6140
26.500000	83.080421	-7.4346
27.200001	83.086876	-8.0798
28.000000	83.108490	-8.7214
29.000000	83.121040	-9.5624
30.000000	83.105965	-10.3341
30.700001	83.087891	-10.8864
31.500000	83.056335	-11.5324
32.500000	83.020805	-12.3062
33.500000	83.002197	-13.1620
34.500000	82.981567	-14.0811
35.500000	82.958069	-14.9025
36.500000	82.945328	-15.6178
37.500000	82.939957	-16.3131
38.700001	82.931000	-17.2019
40.000000	82.891006	-18.1470
41.200001	82.869614	-18.8766
42.500000	82.844215	-19.8462
43.700001	82.815033	-20.5511
45.000000	82.802826	-21.4217
46.200001	82.773010	-22.1559
47.500000	82.750618	-22.9782
48.700001	82.713257	-23.6757
50.000000	82.691086	-24.4231
51.500000	82.646194	-25.3403
53.000000	82.588432	-26.1671
54.500000	82.553917	-27.0215
56.000000	82.493973	-27.8759
58.000000	82.464859	-28.9320
60.000000	82.461906	-30.7362
61.500000	82.345177	-30.8937
63.000000	82.326828	-31.5270
65.000000	82.300140	-32.2562
67.000000	82.223061	-33.3790
69.000000	82.161316	-34.4487
71.000000	82.129189	-35.4105
73.000000	82.094635	-36.3413
75.000000	82.031387	-37.2561
77.500000	81.969406	-38.4667
80.000000	81.913750	-39.5273
82.500000	81.857330	-40.6448
85.000000	81.786621	-41.7326
87.500000	81.706604	-42.8314
90.000000	81.637085	-43.9662
92.500000	81.562607	-45.0130
95.000000	81.502663	-46.0618
97.500000	81.441238	-47.0686
100.000000	81.363068	-48.0498
103.000000	81.273758	-49.2305
106.000000	81.177650	-50.4637
109.000000	81.087997	-51.6450
112.000000	80.995422	-52.6658
115.000000	80.917610	-53.7770
118.000000	80.820366	-54.7719
122.000000	80.689316	-56.2735
125.000000	80.581718	-57.2972
128.000000	80.490036	-58.3587
132.000000	80.370689	-59.6050
136.000000	80.236580	-60.7871
140.000000	80.092163	-62.0011
145.000000	79.955254	-63.3230
150.000000	79.771187	-64.7493
155.000000	79.610489	-66.0986
160.000000	79.429420	-67.3192
165.000000	79.288513	-68.4674
170.000000	79.131676	-69.6331
175.000000	78.992218	-70.5134
180.000000	78.801743	-71.3172
185.000000	78.734787	-72.2870
190.000000	78.629547	-73.0795
195.000000	78.556351	-74.1084
200.000000	78.474838	-75.1890
206.000000	78.347748	-76.5429
212.000000	78.209702	-77.7163
218.000000	78.077187	-78.8366
224.000000	77.938721	-80.0659
230.000000	77.804321	-81.1566
236.000000	77.665466	-82.2878
243.000000	77.517052	-83.5052
250.000000	77.361115	-84.4068
258.000000	77.187912	-85.6208
265.000000	77.066376	-86.5229
272.000000	76.934570	-87.4594
280.000000	76.817352	-88.5186
290.000000	76.633369	-89.6598
300.000000	76.471275	-90.5478
307.000000	76.351807	-91.7453
315.000000	76.248512	-92.5116
325.000000	76.127243	-93.6179
335.000000	75.973755	-94.5176
345.000000	75.855148	-95.4686
355.000000	75.729706	-96.3046
365.000000	75.635109	-97.1020
375.000000	75.514847	-98.0485
387.000000	75.398407	-98.7099
400.000000	75.311195	-99.2423
412.000000	75.286560	-99.4996
425.000000	75.357544	-100.2607
437.000000	75.363884	-101.5450
450.000000	75.331467	-102.9220
462.000000	75.262199	-103.9379
475.000000	75.255386	-104.8340
487.000000	75.246506	-105.4359
500.000000	75.213486	-106.3960
515.000000	75.255417	-107.2630
530.000000	75.243164	-108.2468
545.000000	75.271782	-108.9566
560.000000	75.278183	-109.7854
580.000000	75.347595	-110.9650
600.000000	75.426849	-112.0191
615.000000	75.485085	-112.8808
630.000000	75.562195	-113.6616
650.000000	75.672943	-114.8218
670.000000	75.781219	-115.8712
690.000000	75.879021	-117.0446
710.000000	75.999718	-117.9836
730.000000	76.131439	-118.8038
750.000000	76.266083	-119.6611
775.000000	76.501175	-120.5313
800.000000	76.747223	-121.4555
825.000000	77.036743	-122.6894
850.000000	77.348854	-123.9940
875.000000	77.681999	-125.3891
900.000000	78.012512	-127.0484
925.000000	78.339203	-128.9608
950.000000	78.639183	-130.7399
975.000000	78.943886	-132.7742
1000.000000	79.210388	-134.6403
1030.000000	79.598221	-137.5283
1060.000000	79.923378	-140.3576
1090.000000	80.226860	-143.2347
1120.000000	80.528542	-146.2459
1150.000000	80.786827	-149.2977
1180.000000	81.018761	-152.5530
1220.000000	81.247444	-156.7758
1250.000000	81.378975	-160.0895
1280.000000	81.492935	-163.1482
1320.000000	81.559212	-167.0554
1360.000000	81.581505	-170.7398
1400.000000	81.585197	-174.0288
1450.000000	81.546646	-177.7605
1500.000000	81.508125	179.0486
1550.000000	81.444290	176.3387
1600.000000	81.402695	174.0156
1650.000000	81.372223	171.8533
1700.000000	81.368378	170.0227
1750.000000	81.410187	168.2670
1800.000000	81.435722	166.7157
1850.000000	81.504410	165.2534
1900.000000	81.580193	163.7427
1950.000000	81.670273	162.2789
2000.000000	81.773804	160.9514
2060.000000	81.920502	158.9344
2120.000000	82.049332	156.9606
2180.000000	82.178909	154.8807
2240.000000	82.282791	152.6642
2300.000000	82.352402	150.3881
2360.000000	82.377655	148.1326
2430.000000	82.353485	145.5025
2500.000000	82.256134	143.2325
2580.000000	82.095749	141.1801
2650.000000	81.936768	139.9620
2720.000000	81.800949	139.3567
2800.000000	81.713623	139.1376
2900.000000	81.728569	138.9323
3000.000000	81.774353	138.2570
3070.000000	81.807648	137.8042
3150.000000	81.797119	137.2256
3250.000000	81.757065	136.7860
3350.000000	81.731537	136.8199
3450.000000	81.723450	137.0908
3550.000000	81.725525	137.7121
3650.000000	81.770775	138.5469
3750.000000	81.885094	139.6688
3870.000000	82.147156	141.0757
4000.000000	82.603378	142.0369
4120.000000	83.161209	141.4173
4250.000000	83.746231	138.1614
4370.000000	83.999893	132.5123
4500.000000	83.615013	125.0016
4620.000000	82.562111	119.6384
4750.000000	80.988625	118.2220
4870.000000	79.469635	120.9836
5000.000000	77.938316	127.9062
5150.000000	76.629570	140.3950
5300.000000	76.051010	155.9373
5450.000000	76.310707	172.4345
5600.000000	77.420601	-172.4980
5800.000000	79.908478	-159.1036
6000.000000	82.637047	-156.6664
6150.000000	84.021507	-161.0954
6300.000000	84.550591	-166.7127
6500.000000	84.404495	-170.7720
6700.000000	84.135834	-170.0488
6900.000000	84.210213	-167.6730
7100.000000	84.647011	-166.9954
7300.000000	85.050346	-170.7117
7500.000000	84.702690	-178.7963
7750.000000	82.493057	173.9038
8000.000000	79.694138	175.7487
8250.000000	76.937553	-173.9446
8500.000000	74.772987	-158.9754
8750.000000	73.145325	-141.3785
9000.000000	72.066780	-122.3384
9250.000000	71.511543	-103.5813
9500.000000	71.490753	-85.8761
9750.000000	71.838593	-72.1298
10000.000000	71.705368	-63.6207
10300.000000	70.095459	-51.5120
10600.000000	68.382721	-28.1381
10900.000000	67.736740	0.4761
11200.000000	68.224594	27.7725
11500.000000	69.343773	51.7649
11800.000000	70.915222	71.3142
12200.000000	72.635551	89.5315
12500.000000	73.411095	100.5018
12800.000000	73.882469	111.5755
13200.000000	74.390808	126.3137
13600.000000	74.795387	139.6734
14000.000000	74.958076	151.8256
14500.000000	74.900375	164.3627
15000.000000	73.877304	174.1328
15500.000000	71.564133	-171.1982
16000.000000	69.076744	-147.2767
16500.000000	67.538132	-116.4637
17000.000000	67.105560	-86.1618
17500.000000	67.797989	-59.7762
18000.000000	69.209671	-45.8671
18500.000000	69.038368	-48.4945
19000.000000	66.303978	-48.0170
19500.000000	63.554947	-39.7630
