* Measurement data measured by REW V5.19
* Source: Microphone (2- USB Sound Device        ), no input selected, R, volume: no control
* Format: 1M Log Swept Sine, 1 sweep at -20.0 dBFS  With no timing reference
* Dated: May 24, 2019 12:24:52 PM
* REW Settings:
*  C-weighting compensation: Off
*  Target level: 75.0 dB
* Note: ; 
* Measurement: KZ AS16 - Tape Mod
* Smoothing: 1/48 octave
* Frequency Step: 1/24 octave
* Start Frequency: 20.000 Hz
*
* Freq(Hz)	SPL(dB)	Phase(degrees)
20.000000	75.725311	31.3719
20.600000	75.840218	30.1364
21.200001	75.887917	29.1370
21.799999	75.919785	28.2583
22.400000	75.954300	27.3485
23.000000	75.983246	26.2933
23.600000	75.997543	25.1968
24.299999	76.018166	24.0463
25.000000	76.073555	22.9556
25.799999	76.154732	21.5721
26.500000	76.202660	20.4037
27.200001	76.243652	19.4877
28.000000	76.311050	18.5646
29.000000	76.372093	17.2805
30.000000	76.386398	16.2111
30.700001	76.408966	15.5384
31.500000	76.438461	14.6307
32.500000	76.459854	13.4423
33.500000	76.485115	12.2857
34.500000	76.508087	11.2384
35.500000	76.559158	10.3693
36.500000	76.618546	9.3712
37.500000	76.648140	8.4595
38.700001	76.684959	7.3924
40.000000	76.676849	6.2739
41.200001	76.687622	5.3838
42.500000	76.706001	4.4014
43.700001	76.752785	3.4195
45.000000	76.777008	2.2417
46.200001	76.785873	1.3246
47.500000	76.801437	0.3769
48.700001	76.789108	-0.4250
50.000000	76.805511	-1.0805
51.500000	76.836098	-1.9833
53.000000	76.863327	-3.0862
54.500000	76.856651	-4.2302
56.000000	76.820580	-5.1068
58.000000	76.860077	-6.3898
60.000000	76.859962	-8.3241
61.500000	76.834023	-8.3728
63.000000	76.905304	-9.2275
65.000000	76.890434	-10.2286
67.000000	76.893723	-11.1517
69.000000	76.887299	-12.2144
71.000000	76.881081	-13.3209
73.000000	76.883980	-14.2742
75.000000	76.903351	-15.2628
77.500000	76.893860	-16.3849
80.000000	76.889954	-17.5523
82.500000	76.882690	-18.7902
85.000000	76.873657	-19.7569
87.500000	76.852943	-20.8876
90.000000	76.832870	-22.0377
92.500000	76.819054	-23.0039
95.000000	76.815613	-24.0157
97.500000	76.799500	-25.0885
100.000000	76.781143	-25.9826
103.000000	76.751350	-27.2229
106.000000	76.716431	-28.3847
109.000000	76.707756	-29.5711
112.000000	76.691116	-30.6974
115.000000	76.684875	-31.7678
118.000000	76.675606	-32.8428
122.000000	76.625748	-34.0893
125.000000	76.582413	-35.2199
128.000000	76.586449	-36.2665
132.000000	76.561607	-37.6580
136.000000	76.494934	-38.8755
140.000000	76.479599	-40.2438
145.000000	76.433289	-41.5708
150.000000	76.382767	-43.1027
155.000000	76.349228	-44.7536
160.000000	76.293541	-46.2863
165.000000	76.234131	-47.6424
170.000000	76.201591	-48.9334
175.000000	76.158173	-50.3762
180.000000	76.089310	-51.9483
185.000000	76.036407	-53.1045
190.000000	75.979874	-54.3424
195.000000	75.946068	-55.5552
200.000000	75.886780	-56.7789
206.000000	75.860382	-58.1659
212.000000	75.766129	-59.6607
218.000000	75.728233	-60.9603
224.000000	75.626587	-62.2979
230.000000	75.583717	-63.5890
236.000000	75.550163	-64.8896
243.000000	75.471703	-66.4744
250.000000	75.419716	-67.7220
258.000000	75.347504	-69.2836
265.000000	75.267616	-70.6090
272.000000	75.229477	-71.8540
280.000000	75.148552	-73.2868
290.000000	75.089996	-74.9536
300.000000	75.003914	-76.4534
307.000000	74.942902	-77.7488
315.000000	74.906219	-79.0255
325.000000	74.840240	-80.2838
335.000000	74.747116	-81.7729
345.000000	74.701355	-82.8508
355.000000	74.663284	-84.3674
365.000000	74.605530	-85.4463
375.000000	74.539825	-86.6262
387.000000	74.499207	-87.8783
400.000000	74.440331	-89.1308
412.000000	74.413361	-90.3380
425.000000	74.385880	-91.3391
437.000000	74.358284	-92.4752
450.000000	74.346970	-93.4316
462.000000	74.319893	-94.3721
475.000000	74.317947	-95.2477
487.000000	74.355072	-96.0858
500.000000	74.353188	-96.9673
515.000000	74.395264	-97.7744
530.000000	74.423706	-98.4104
545.000000	74.475990	-99.2098
560.000000	74.529419	-99.8527
580.000000	74.635811	-100.6520
600.000000	74.765854	-101.5519
615.000000	74.840652	-102.1324
630.000000	74.969368	-102.6121
650.000000	75.144745	-103.3604
670.000000	75.318787	-104.1301
690.000000	75.498566	-104.4506
710.000000	75.674873	-105.0597
730.000000	75.905594	-105.6554
750.000000	76.123268	-106.1178
775.000000	76.437164	-106.9030
800.000000	76.753670	-107.6503
825.000000	77.094215	-108.4434
850.000000	77.447556	-109.1161
875.000000	77.814957	-110.0342
900.000000	78.191071	-110.8654
925.000000	78.598740	-111.8128
950.000000	79.007477	-112.8380
975.000000	79.431908	-113.9700
1000.000000	79.880928	-115.5062
1030.000000	80.387077	-116.9536
1060.000000	80.910507	-118.8059
1090.000000	81.452469	-121.1077
1120.000000	81.944519	-123.5817
1150.000000	82.440361	-126.2524
1180.000000	82.886581	-129.2531
1220.000000	83.427727	-133.4666
1250.000000	83.775528	-136.7160
1280.000000	84.061584	-139.9588
1320.000000	84.398239	-144.1938
1360.000000	84.655891	-148.2564
1400.000000	84.866478	-152.0557
1450.000000	85.071953	-156.3564
1500.000000	85.245964	-160.1994
1550.000000	85.404556	-163.6447
1600.000000	85.562027	-166.6787
1650.000000	85.743752	-169.4177
1700.000000	85.929886	-171.9496
1750.000000	86.145897	-174.3450
1800.000000	86.385330	-176.7151
1850.000000	86.648651	-179.1029
1900.000000	86.934990	178.4203
1950.000000	87.231880	175.7325
2000.000000	87.529274	172.9527
2060.000000	87.851112	169.0190
2120.000000	88.121964	164.9497
2180.000000	88.313789	160.8477
2240.000000	88.463783	157.0535
2300.000000	88.631111	153.5326
2360.000000	88.869827	149.6667
2430.000000	89.144279	143.8458
2500.000000	89.196373	136.9128
2580.000000	88.897179	129.0931
2650.000000	88.392479	123.3632
2720.000000	87.772484	118.9873
2800.000000	87.020737	115.5657
2900.000000	86.105270	113.2228
3000.000000	85.301270	112.4474
3070.000000	84.777122	112.5594
3150.000000	84.243767	113.2432
3250.000000	83.645340	114.7841
3350.000000	83.094383	117.1823
3450.000000	82.588821	121.0547
3550.000000	82.349503	127.7910
3650.000000	83.087189	134.9547
3750.000000	84.374893	134.2672
3870.000000	84.576187	127.0917
4000.000000	83.730659	125.2722
4120.000000	83.125832	129.5380
4250.000000	83.224365	136.3430
4370.000000	83.922546	141.0890
4500.000000	85.037331	142.6359
4620.000000	86.093956	139.3906
4750.000000	86.653961	130.5684
4870.000000	86.111275	121.2561
5000.000000	84.623512	115.9125
5150.000000	82.665962	117.7327
5300.000000	81.141991	125.7211
5450.000000	80.308197	137.3097
5600.000000	80.298019	149.8038
5800.000000	81.446609	162.8847
6000.000000	83.063103	167.3029
6150.000000	83.903175	165.2086
6300.000000	84.007431	161.1663
6500.000000	83.208870	159.6409
6700.000000	82.305389	164.1986
6900.000000	81.970856	171.8116
7100.000000	82.125107	178.5800
7300.000000	82.549789	-177.3113
7500.000000	82.880875	-177.0902
7750.000000	82.430717	-179.5286
8000.000000	80.944160	-179.5098
8250.000000	79.182098	-172.3430
8500.000000	77.857971	-160.3690
8750.000000	77.122284	-146.5537
9000.000000	76.978745	-132.7523
9250.000000	77.482697	-120.8189
9500.000000	78.421631	-113.9471
9750.000000	79.224579	-115.6686
10000.000000	78.463074	-124.0515
10300.000000	75.332001	-126.0165
10600.000000	71.721565	-114.4869
10900.000000	68.676788	-94.6196
11200.000000	66.429329	-70.0818
11500.000000	65.004822	-43.6719
11800.000000	64.290878	-17.2941
12200.000000	64.150932	13.4068
12500.000000	63.952595	32.9386
12800.000000	63.804459	54.1758
13200.000000	63.957603	81.5553
13600.000000	64.392242	105.9738
14000.000000	64.753792	128.6102
14500.000000	64.981102	158.9608
15000.000000	66.654243	-168.9069
15500.000000	69.470779	-149.8163
16000.000000	71.211716	-143.5348
16500.000000	71.420349	-138.5702
17000.000000	71.395966	-134.9217
17500.000000	69.757057	-138.2782
18000.000000	65.936447	-132.0012
18500.000000	62.272358	-113.1773
19000.000000	59.629810	-71.1426
19500.000000	64.004333	-69.2474
