* Measurement data measured by REW V5.20 Beta 59
* Source: Headset (USB-C to 3.5mm Headphone Jack Adapter), MICROPHONE (Master Volume), R, volume: 0.169
* Format: 512k Log Swept Sine, 1 sweep at -6.0 dBFS with no timing reference
* Dated: Oct 16, 2020 1:15:18 PM
* REW Settings:
*  C-weighting compensation: Off
*  Target level: 75.0 dB
* Note: ; 
* Measurement: KZ ASX - R
* Smoothing: 1/48 octave
* Frequency Step: 1/24 octave
* Start Frequency: 20.600 Hz
*
* Freq(Hz)	SPL(dB)	Phase(degrees)
20.600000	82.821487	52.1891
21.200001	82.930290	50.7533
21.799999	83.031425	49.2884
22.400000	83.160202	47.6884
23.000000	83.296066	46.1102
23.600000	83.397400	44.7132
24.299999	83.481079	43.3876
25.000000	83.579041	42.1057
25.799999	83.712151	40.3761
26.500000	83.789284	38.8228
27.200001	83.880730	37.5974
28.000000	83.972725	36.2452
29.000000	84.085052	33.8628
30.000000	84.167137	32.5457
30.700001	84.224030	31.4228
31.500000	84.304123	30.0846
32.500000	84.388939	28.4648
33.500000	84.459694	26.7372
34.500000	84.478455	25.1904
35.500000	84.545898	23.9707
36.500000	84.605141	22.6293
37.500000	84.673553	21.3351
38.700001	84.730446	19.7465
40.000000	84.785767	18.0562
41.200001	84.814972	16.7376
42.500000	84.852440	15.2567
43.700001	84.857246	13.7621
45.000000	84.874405	12.4158
46.200001	84.899261	10.9339
47.500000	84.936440	9.5651
48.700001	84.947266	8.5004
50.000000	84.947021	7.1300
51.500000	84.964561	5.6768
53.000000	84.963730	4.3716
54.500000	84.962837	2.9899
56.000000	84.967957	1.6509
58.000000	84.961578	0.0495
60.000000	84.943062	-1.6409
61.500000	84.945679	-2.8430
63.000000	84.928932	-3.9404
65.000000	84.911430	-5.4666
67.000000	84.885857	-6.9503
69.000000	84.860741	-8.3149
71.000000	84.826927	-9.7085
73.000000	84.790611	-11.0210
75.000000	84.755707	-12.2752
77.500000	84.711044	-13.8370
80.000000	84.655090	-15.3421
82.500000	84.603325	-16.8154
85.000000	84.543488	-18.2407
87.500000	84.479347	-19.6121
90.000000	84.348015	-21.2479
92.500000	84.353447	-22.2766
95.000000	84.284363	-23.4768
97.500000	84.224983	-24.6859
100.000000	84.151711	-25.9008
103.000000	84.065567	-27.2983
106.000000	83.972878	-28.5267
109.000000	83.881935	-29.9824
112.000000	83.806381	-31.2198
115.000000	83.712265	-32.4045
118.000000	83.619507	-33.6942
122.000000	83.493080	-35.1248
125.000000	83.392944	-36.2468
128.000000	83.291634	-37.3593
132.000000	83.166740	-38.7467
136.000000	83.046158	-40.0865
140.000000	82.909691	-41.3800
145.000000	82.750053	-42.9493
150.000000	82.593201	-44.4704
155.000000	82.423576	-45.8734
160.000000	82.263153	-47.2361
165.000000	82.089073	-48.4642
170.000000	81.942825	-49.8193
175.000000	81.773010	-51.0335
180.000000	81.624092	-52.1653
185.000000	81.459564	-53.3969
190.000000	81.300476	-54.4021
195.000000	81.146103	-55.4379
200.000000	80.996857	-56.3827
206.000000	80.806496	-57.5556
212.000000	80.623322	-58.6553
218.000000	80.444229	-59.6938
224.000000	80.267166	-60.6713
230.000000	80.092232	-61.6305
236.000000	79.918976	-62.5316
243.000000	79.722450	-63.5308
250.000000	79.524223	-64.4810
258.000000	79.303711	-65.5097
265.000000	79.116257	-66.3454
272.000000	78.928162	-67.1489
280.000000	78.720947	-68.0249
290.000000	78.468758	-69.0127
300.000000	78.216827	-69.9440
307.000000	78.051537	-70.5250
315.000000	77.865097	-71.1768
325.000000	77.634674	-71.8893
335.000000	77.411591	-72.5432
345.000000	77.193932	-73.1244
355.000000	76.983070	-73.6768
365.000000	76.778961	-74.1471
375.000000	76.584030	-74.5673
387.000000	76.357307	-75.0172
400.000000	76.120850	-75.3730
412.000000	75.911888	-75.6526
425.000000	75.697083	-75.8814
437.000000	75.507759	-76.0192
450.000000	75.314407	-76.0952
462.000000	75.144646	-76.0969
475.000000	74.971191	-76.0338
487.000000	74.817764	-75.9359
500.000000	74.668800	-75.7669
515.000000	74.503029	-75.5031
530.000000	74.353859	-75.1374
545.000000	74.218903	-74.7347
560.000000	74.096359	-74.2612
580.000000	73.956673	-73.5199
600.000000	73.842148	-72.6666
615.000000	73.772842	-71.9834
630.000000	73.714546	-71.2474
650.000000	73.663597	-70.1853
670.000000	73.636345	-69.0545
690.000000	73.633598	-67.8558
710.000000	73.656822	-66.6262
730.000000	73.704063	-65.3074
750.000000	73.779793	-63.9638
775.000000	73.912430	-62.2675
800.000000	74.083351	-60.5376
825.000000	74.299408	-58.8456
850.000000	74.552330	-57.1740
875.000000	74.848625	-55.5638
900.000000	75.180634	-54.0699
925.000000	75.550064	-52.6885
950.000000	75.957153	-51.4499
975.000000	76.393234	-50.4044
1000.000000	76.857475	-49.5213
1030.000000	77.440140	-48.7477
1060.000000	78.047058	-48.3164
1090.000000	78.668823	-48.2585
1120.000000	79.303421	-48.5040
1150.000000	79.934494	-49.0866
1180.000000	80.558762	-49.9760
1220.000000	81.379272	-51.5962
1250.000000	81.976807	-53.1323
1280.000000	82.557945	-54.9184
1320.000000	83.293808	-57.6386
1360.000000	83.978600	-60.7031
1400.000000	84.608047	-64.0978
1450.000000	85.314636	-68.6641
1500.000000	85.922783	-73.4498
1550.000000	86.435257	-78.3095
1600.000000	86.859566	-83.1515
1650.000000	87.207451	-87.8898
1700.000000	87.491760	-92.4775
1750.000000	87.727501	-96.9124
1800.000000	87.920334	-101.1858
1850.000000	88.083298	-105.3374
1900.000000	88.225838	-109.4232
1950.000000	88.348145	-113.5210
2000.000000	88.446625	-117.7319
2060.000000	88.510086	-123.1083
2120.000000	88.458145	-128.9148
2180.000000	88.204483	-134.9348
2240.000000	87.680832	-140.3591
2300.000000	86.933273	-143.9251
2360.000000	86.176575	-144.8566
2430.000000	85.607506	-143.5570
2500.000000	85.461105	-141.9611
2580.000000	85.591820	-141.5434
2650.000000	85.771149	-142.4846
2720.000000	85.917725	-144.2300
2800.000000	86.010193	-146.7140
2900.000000	86.020699	-149.9951
3000.000000	85.952446	-153.1288
3070.000000	85.880829	-155.2158
3150.000000	85.787849	-157.5283
3250.000000	85.665482	-160.4582
3350.000000	85.529060	-163.7031
3450.000000	85.315559	-167.5690
3550.000000	84.911125	-171.8804
3650.000000	84.261200	-175.6660
3750.000000	83.458084	-178.5517
3870.000000	82.146240	179.3660
4000.000000	80.411766	-177.8221
4120.000000	79.044342	-168.7276
4250.000000	78.706970	-154.5339
4370.000000	79.497276	-143.2013
4500.000000	80.961578	-135.6379
4620.000000	82.507217	-132.7310
4750.000000	84.239822	-133.3207
4870.000000	85.827339	-137.3788
5000.000000	87.354919	-146.2854
5150.000000	88.326042	-162.1228
5300.000000	87.960953	-179.0783
5450.000000	86.580414	168.9261
5600.000000	85.048569	163.8882
5800.000000	83.795807	161.9624
6000.000000	83.198761	158.2290
6150.000000	82.825523	152.8293
6300.000000	82.166328	144.1983
6500.000000	79.954437	131.2179
6700.000000	76.272934	127.0421
6900.000000	72.508217	137.0972
7100.000000	70.394218	156.7955
7300.000000	69.776009	175.3865
7500.000000	70.236023	-168.8576
7750.000000	71.749771	-155.9512
8000.000000	73.500961	-152.0518
8250.000000	74.680107	-155.4146
8500.000000	74.916283	-159.8648
8750.000000	74.843010	-160.9097
9000.000000	75.521606	-162.5805
9250.000000	75.590210	-173.3691
9500.000000	74.147949	-179.3511
9750.000000	72.860603	-178.2505
10000.000000	72.091072	-174.5126
10300.000000	71.890488	-169.5995
10600.000000	72.394348	-167.3351
10900.000000	73.266472	-170.7738
11200.000000	73.711906	178.7372
11500.000000	72.991646	166.3777
11800.000000	71.468872	159.1867
12200.000000	70.199203	159.2395
12500.000000	70.100998	157.2900
12800.000000	70.411583	154.1558
13200.000000	71.791641	140.9326
13600.000000	71.427139	108.2055
14000.000000	67.320114	87.6934
14500.000000	63.448681	87.3412
15000.000000	62.432182	87.3815
15500.000000	62.283089	76.8247
16000.000000	62.483513	55.4240
16500.000000	62.342628	26.7771
17000.000000	61.782120	-12.0478
17500.000000	59.389282	-56.1667
18000.000000	58.279819	-67.8162
18500.000000	63.106319	-125.6406
19000.000000	64.773941	152.0032
19500.000000	62.612553	59.9730
