* Measurement data measured by REW V5.20
* Source: Headset (USB-C to 3.5mm Headphone Jack Adapter), MICROPHONE (Master Volume), R, volume: 0.260
* Format: 256k Log Swept Sine, 1 sweep at -6.0 dBFS with no timing reference
* Dated: Mar 29, 2021 10:15:25 PM
* REW Settings:
*  C-weighting compensation: Off
*  Target level: 75.0 dB
* Note: ; 
* Measurement: Prisma Audio - R
* Smoothing: 1/48 octave
* Frequency Step: 1/24 octave
* Start Frequency: 20.600 Hz
*
* Freq(Hz)	SPL(dB)	Phase(degrees)
20.600000	83.078033	-118.3034
21.200001	83.142090	-119.4668
21.799999	83.215469	-120.5723
22.400000	83.283432	-121.7473
23.000000	83.316483	-122.9785
23.600000	83.317574	-124.1066
24.299999	83.335640	-125.2532
25.000000	83.396622	-126.5085
25.799999	83.444656	-128.0823
26.500000	83.444862	-129.1739
27.200001	83.448746	-130.0568
28.000000	83.457764	-131.2135
29.000000	83.452843	-132.6794
30.000000	83.476234	-133.9738
30.700001	83.502281	-134.8824
31.500000	83.518143	-135.8409
32.500000	83.546127	-137.0202
33.500000	83.573425	-138.1899
34.500000	83.596565	-139.2132
35.500000	83.610413	-140.2195
36.500000	83.616577	-141.2102
37.500000	83.631783	-142.1670
38.700001	83.635567	-143.2421
40.000000	83.635315	-144.2193
41.200001	83.643356	-145.2966
42.500000	83.629974	-146.3158
43.700001	83.632133	-147.1423
45.000000	83.627075	-148.0568
46.200001	83.617294	-148.8616
47.500000	83.600334	-149.6736
48.700001	83.585434	-150.4572
50.000000	83.569313	-151.2242
51.500000	83.546677	-152.0721
53.000000	83.528503	-152.8744
54.500000	83.513535	-153.6472
56.000000	83.502029	-154.3729
58.000000	83.525772	-155.2951
60.000000	83.479874	-155.9204
61.500000	83.519836	-156.8288
63.000000	83.529808	-157.4329
65.000000	83.526390	-158.1866
67.000000	83.535004	-158.8849
69.000000	83.528465	-159.5820
71.000000	83.530983	-160.2033
73.000000	83.523811	-160.8239
75.000000	83.515465	-161.4012
77.500000	83.504951	-162.0671
80.000000	83.490944	-162.7453
82.500000	83.488693	-163.3716
85.000000	83.476059	-163.9513
87.500000	83.458611	-164.4778
90.000000	83.439850	-165.0276
92.500000	83.419281	-165.4965
95.000000	83.411430	-165.9799
97.500000	83.421097	-166.5792
100.000000	83.328033	-166.8133
103.000000	83.380196	-167.4422
106.000000	83.374840	-167.8847
109.000000	83.376541	-168.3360
112.000000	83.374344	-168.7606
115.000000	83.376747	-169.1545
118.000000	83.371735	-169.5695
122.000000	83.365540	-170.0598
125.000000	83.362381	-170.4472
128.000000	83.355087	-170.7487
132.000000	83.348557	-171.1740
136.000000	83.336823	-171.5570
140.000000	83.331238	-171.9551
145.000000	83.314461	-172.4062
150.000000	83.296722	-172.8127
155.000000	83.281754	-173.1936
160.000000	83.264091	-173.5844
165.000000	83.246178	-173.9336
170.000000	83.228287	-174.2573
175.000000	83.203911	-174.5388
180.000000	83.184227	-174.8124
185.000000	83.163414	-175.0938
190.000000	83.139198	-175.3526
195.000000	83.112640	-175.5334
200.000000	83.090225	-175.8205
206.000000	83.057564	-176.0701
212.000000	83.027283	-176.2971
218.000000	82.998260	-176.5063
224.000000	82.967209	-176.7102
230.000000	82.930603	-176.8697
236.000000	82.896530	-177.0466
243.000000	82.855980	-177.2226
250.000000	82.816902	-177.3710
258.000000	82.772560	-177.5057
265.000000	82.729279	-177.6351
272.000000	82.689957	-177.7220
280.000000	82.640327	-177.8126
290.000000	82.579773	-177.8911
300.000000	82.514580	-178.0322
307.000000	82.476898	-177.9760
315.000000	82.428680	-177.9782
325.000000	82.368645	-177.9553
335.000000	82.308395	-177.9163
345.000000	82.248650	-177.8526
355.000000	82.188492	-177.7471
365.000000	82.131004	-177.6500
375.000000	82.072769	-177.5199
387.000000	82.004196	-177.3398
400.000000	81.928490	-177.0859
412.000000	81.862701	-176.8500
425.000000	81.793182	-176.5582
437.000000	81.730019	-176.2564
450.000000	81.663124	-175.9152
462.000000	81.602310	-175.5596
475.000000	81.537994	-175.1618
487.000000	81.480591	-174.7450
500.000000	81.422066	-174.3077
515.000000	81.357872	-173.7600
530.000000	81.292145	-173.1905
545.000000	81.233330	-172.5868
560.000000	81.175781	-171.9582
580.000000	81.107567	-171.0703
600.000000	81.043732	-170.1445
615.000000	80.998505	-169.4273
630.000000	80.958557	-168.6777
650.000000	80.909271	-167.6644
670.000000	80.869476	-166.5843
690.000000	80.836281	-165.5029
710.000000	80.812111	-164.3603
730.000000	80.796722	-163.1952
750.000000	80.789467	-162.0046
775.000000	80.797310	-160.4619
800.000000	80.821915	-158.9131
825.000000	80.862434	-157.3316
850.000000	80.925247	-155.7699
875.000000	81.006882	-154.2126
900.000000	81.107765	-152.6860
925.000000	81.231796	-151.2211
950.000000	81.369934	-149.8324
975.000000	81.525330	-148.5466
1000.000000	81.695786	-147.3604
1030.000000	81.911896	-146.1096
1060.000000	82.139145	-145.0439
1090.000000	82.368088	-144.1667
1120.000000	82.593086	-143.4498
1150.000000	82.815308	-142.8965
1180.000000	83.025665	-142.4665
1220.000000	83.288383	-142.0678
1250.000000	83.471237	-141.8490
1280.000000	83.642365	-141.6852
1320.000000	83.850723	-141.5358
1360.000000	84.041733	-141.3914
1400.000000	84.218590	-141.2485
1450.000000	84.427246	-141.0453
1500.000000	84.632095	-140.8203
1550.000000	84.837151	-140.5960
1600.000000	85.047218	-140.4086
1650.000000	85.259628	-140.2904
1700.000000	85.466805	-140.2341
1750.000000	85.668526	-140.2464
1800.000000	85.862038	-140.2952
1850.000000	86.051598	-140.3857
1900.000000	86.238060	-140.5134
1950.000000	86.422287	-140.7037
2000.000000	86.605156	-140.9473
2060.000000	86.819885	-141.3436
2120.000000	87.026154	-141.8531
2180.000000	87.223579	-142.4662
2240.000000	87.409882	-143.1941
2300.000000	87.580742	-144.0187
2360.000000	87.737572	-144.9316
2430.000000	87.895882	-146.0984
2500.000000	88.027199	-147.3418
2580.000000	88.143913	-148.8425
2650.000000	88.214317	-150.1885
2720.000000	88.256859	-151.5422
2800.000000	88.270996	-153.0735
2900.000000	88.239769	-154.9154
3000.000000	88.158112	-156.6184
3070.000000	88.073563	-157.6875
3150.000000	87.953239	-158.7781
3250.000000	87.774460	-159.9175
3350.000000	87.572121	-160.7657
3450.000000	87.358383	-161.3162
3550.000000	87.142670	-161.5894
3650.000000	86.932892	-161.6043
3750.000000	86.733902	-161.3944
3870.000000	86.516747	-160.8910
4000.000000	86.313805	-160.0871
4120.000000	86.160019	-159.1512
4250.000000	86.040993	-157.9814
4370.000000	85.985954	-156.8392
4500.000000	85.996094	-155.7278
4620.000000	86.057968	-155.1076
4750.000000	86.115501	-155.0887
4870.000000	86.094635	-155.3848
5000.000000	86.000710	-155.5304
5150.000000	85.851608	-155.1134
5300.000000	85.785156	-154.0798
5450.000000	85.830826	-153.0794
5600.000000	85.960747	-152.4774
5800.000000	86.220856	-152.6263
6000.000000	86.498886	-154.2321
6150.000000	86.646004	-156.4387
6300.000000	86.678146	-159.3277
6500.000000	86.475891	-163.5865
6700.000000	86.001198	-167.2943
6900.000000	85.352943	-169.6487
7100.000000	84.666016	-170.3458
7300.000000	84.075005	-169.7542
7500.000000	83.621719	-168.4425
7750.000000	83.279617	-166.5565
8000.000000	83.147682	-165.3531
8250.000000	83.072357	-165.5123
8500.000000	82.886238	-166.5122
8750.000000	82.595245	-167.1786
9000.000000	82.388908	-167.2534
9250.000000	82.386559	-168.1991
9500.000000	82.364128	-171.4248
9750.000000	82.048141	-176.2069
10000.000000	81.322723	179.1119
10300.000000	80.116821	176.3884
10600.000000	78.995804	177.2066
10900.000000	78.283173	-179.8065
11200.000000	78.012810	-176.2705
11500.000000	78.239388	-172.9234
11800.000000	78.989380	-170.8057
12200.000000	80.878792	-172.2902
12500.000000	82.846161	179.9927
12800.000000	84.632027	162.6505
13200.000000	84.580109	130.4921
13600.000000	82.482162	109.1479
14000.000000	80.917442	97.4615
14500.000000	80.437820	82.4738
15000.000000	80.897186	57.8654
15500.000000	81.143570	20.0353
16000.000000	79.680153	-28.2452
16500.000000	75.818130	-69.2230
17000.000000	72.575928	-93.8379
17500.000000	71.785782	-118.0325
18000.000000	73.010254	-153.8424
18500.000000	75.559807	145.7801
19000.000000	76.404579	47.4397
19500.000000	72.907928	-70.7706
