* Measurement data measured by REW V5.20.13
* Source: Headset (2- USB-C to 3.5mm Headphone Jack Adapter), MICROPHONE (Master Volume), R, volume: 0.250. Timing signal peak level -64.3 dBFS, measurement signal peak level -24.1 dBFS
* Format: 512k Log Swept Sine, 1 sweep at -6.0 dBFS using an acoustic timing reference
* Dated: Jun 24, 2023 5:25:35 PM
* REW Settings:
*  C-weighting compensation: Off
*  Target level: 75.0 dB
* Note: ; Delay 0.0507 ms (17 mm, 0.68 in) using estimated IR delay relative to Acoustic reference played from  L with no timing offset
* Measurement: Bridge R
* Smoothing: 1/48 octave
* Frequency Step: 1/24 octave
* Start Frequency: 20.600 Hz
*
* Freq(Hz)	SPL(dB)	Phase(degrees)
20.600000	88.261	-110.8443
21.200001	88.389	-112.8338
21.799999	88.502	-114.7917
22.400000	88.597	-116.7038
23.000000	88.673	-118.5356
23.600000	88.739	-120.2620
24.299999	88.805	-122.1509
25.000000	88.853	-123.9746
25.799999	88.899	-126.0768
26.500000	88.939	-127.9007
27.200001	88.966	-129.6363
28.000000	88.981	-131.5324
29.000000	89.005	-133.8138
30.000000	89.026	-135.8927
30.700001	89.027	-137.2642
31.500000	89.026	-138.8241
32.500000	89.033	-140.7511
33.500000	89.037	-142.5837
34.500000	89.027	-144.3546
35.500000	89.011	-146.0561
36.500000	89.012	-147.6202
37.500000	88.999	-149.2528
38.700001	88.955	-151.0674
40.000000	88.922	-152.8865
41.200001	88.898	-154.4664
42.500000	88.860	-156.2722
43.700001	88.857	-157.6747
45.000000	88.792	-159.2569
46.200001	88.775	-160.6553
47.500000	88.729	-162.0852
48.700001	88.683	-163.3142
50.000000	88.630	-164.6288
51.500000	88.585	-166.1514
53.000000	88.528	-167.4638
54.500000	88.462	-168.7442
56.000000	88.406	-170.0471
58.000000	88.321	-171.7170
60.000000	88.221	-173.3027
61.500000	88.184	-174.3429
63.000000	88.118	-175.3964
65.000000	88.037	-176.7096
67.000000	87.950	-177.9527
69.000000	87.861	-179.1519
71.000000	87.773	179.7028
73.000000	87.683	178.5966
75.000000	87.588	177.6004
77.500000	87.480	176.3658
80.000000	87.370	175.2581
82.500000	87.252	174.1832
85.000000	87.141	173.1664
87.500000	87.027	172.2145
90.000000	86.912	171.3299
92.500000	86.805	170.4826
95.000000	86.696	169.6876
97.500000	86.594	168.9232
100.000000	86.486	168.2274
103.000000	86.361	167.4387
106.000000	86.242	166.6854
109.000000	86.123	165.9963
112.000000	86.009	165.3498
115.000000	85.897	164.7364
118.000000	85.787	164.1955
122.000000	85.641	163.5074
125.000000	85.537	163.0209
128.000000	85.431	162.5919
132.000000	85.294	162.0351
136.000000	85.159	161.5599
140.000000	85.029	161.1185
145.000000	84.866	160.6335
150.000000	84.713	160.1853
155.000000	84.561	159.8292
160.000000	84.414	159.5187
165.000000	84.268	159.2259
170.000000	84.130	159.0005
175.000000	83.996	158.8172
180.000000	83.854	158.7265
185.000000	83.737	158.5439
190.000000	83.615	158.4460
195.000000	83.497	158.3945
200.000000	83.380	158.3525
206.000000	83.247	158.3326
212.000000	83.117	158.3473
218.000000	82.990	158.4001
224.000000	82.870	158.4645
230.000000	82.756	158.5629
236.000000	82.642	158.6740
243.000000	82.517	158.8052
250.000000	82.398	159.0089
258.000000	82.268	159.2200
265.000000	82.159	159.4359
272.000000	82.054	159.6703
280.000000	81.938	159.9609
290.000000	81.804	160.3373
300.000000	81.676	160.6353
307.000000	81.592	161.0265
315.000000	81.501	161.3712
325.000000	81.391	161.8073
335.000000	81.288	162.2569
345.000000	81.192	162.7148
355.000000	81.101	163.1826
365.000000	81.016	163.6630
375.000000	80.935	164.1318
387.000000	80.846	164.7156
400.000000	80.755	165.3474
412.000000	80.680	165.9460
425.000000	80.604	166.5964
437.000000	80.538	167.1889
450.000000	80.473	167.8422
462.000000	80.420	168.4444
475.000000	80.364	169.0853
487.000000	80.320	169.6919
500.000000	80.276	170.3419
515.000000	80.228	171.0928
530.000000	80.189	171.8381
545.000000	80.155	172.5992
560.000000	80.125	173.3387
580.000000	80.094	174.3449
600.000000	80.072	175.3471
615.000000	80.062	176.0993
630.000000	80.055	176.8633
650.000000	80.056	177.8714
670.000000	80.064	178.8788
690.000000	80.081	179.8995
710.000000	80.106	-179.0768
730.000000	80.142	-178.0477
750.000000	80.184	-177.0309
775.000000	80.254	-175.7452
800.000000	80.338	-174.4904
825.000000	80.437	-173.2374
850.000000	80.555	-172.0224
875.000000	80.683	-170.8505
900.000000	80.826	-169.7325
925.000000	80.978	-168.6787
950.000000	81.123	-167.6918
975.000000	81.236	-166.6528
1000.000000	81.297	-164.7698
1030.000000	81.850	-160.8950
1060.000000	82.529	-161.7136
1090.000000	82.841	-162.4541
1120.000000	83.130	-162.6540
1150.000000	83.426	-162.8501
1180.000000	83.717	-163.1010
1220.000000	84.096	-163.5390
1250.000000	84.373	-163.9449
1280.000000	84.645	-164.4021
1320.000000	85.001	-165.0746
1360.000000	85.347	-165.8239
1400.000000	85.692	-166.6174
1450.000000	86.123	-167.7086
1500.000000	86.558	-168.9013
1550.000000	87.000	-170.2254
1600.000000	87.453	-171.7210
1650.000000	87.916	-173.4238
1700.000000	88.386	-175.3693
1750.000000	88.862	-177.6050
1800.000000	89.336	179.8297
1850.000000	89.800	176.8975
1900.000000	90.244	173.5807
1950.000000	90.656	169.8636
2000.000000	91.020	165.7716
2060.000000	91.375	160.4294
2120.000000	91.621	154.7612
2180.000000	91.744	148.9690
2240.000000	91.745	143.2685
2300.000000	91.636	137.8663
2360.000000	91.437	132.9142
2430.000000	91.124	127.8245
2500.000000	90.760	123.5005
2580.000000	90.325	119.4506
2650.000000	89.952	116.5876
2720.000000	89.603	114.2587
2800.000000	89.246	112.1302
2900.000000	88.872	110.0750
3000.000000	88.587	108.5157
3070.000000	88.440	107.6213
3150.000000	88.324	106.7328
3250.000000	88.254	105.7383
3350.000000	88.265	104.7866
3450.000000	88.354	103.7996
3550.000000	88.519	102.7039
3650.000000	88.760	101.4235
3750.000000	89.075	99.8764
3870.000000	89.549	97.5168
4000.000000	90.179	94.0682
4120.000000	90.844	89.6861
4250.000000	91.583	83.0757
4370.000000	92.115	74.9761
4500.000000	92.273	65.2024
4620.000000	92.134	58.0472
4750.000000	92.306	51.5910
4870.000000	92.593	42.9958
5000.000000	92.475	31.4645
5150.000000	91.690	19.1482
5300.000000	90.543	9.9746
5450.000000	89.318	3.9395
5600.000000	88.191	1.4642
5800.000000	87.712	-1.8284
6000.000000	86.824	-6.6139
6150.000000	86.286	-8.3495
6300.000000	85.926	-9.5227
6500.000000	85.721	-10.7953
6700.000000	85.833	-12.2554
6900.000000	86.268	-14.4738
7100.000000	87.045	-18.1938
7300.000000	88.150	-24.7963
7500.000000	89.372	-36.1121
7750.000000	90.272	-58.2049
8000.000000	89.469	-82.7960
8250.000000	87.499	-99.9178
8500.000000	85.553	-109.1066
8750.000000	84.138	-113.6323
9000.000000	83.411	-116.0574
9250.000000	83.429	-118.8235
9500.000000	84.043	-124.5304
9750.000000	84.876	-134.4110
10000.000000	85.704	-147.8015
10300.000000	86.354	-169.6743
10600.000000	86.479	165.6329
10900.000000	85.775	138.0328
11200.000000	84.058	110.2795
11500.000000	81.381	92.9310
11800.000000	80.700	72.9847
12200.000000	77.494	33.3623
12500.000000	73.367	13.6716
12800.000000	69.278	2.6176
13200.000000	65.326	-5.1108
13600.000000	62.450	-12.9612
14000.000000	60.264	-21.5463
14500.000000	58.704	-30.8058
15000.000000	59.092	-46.0787
15500.000000	60.334	-70.4882
16000.000000	61.700	-105.9491
16500.000000	62.034	-144.3459
17000.000000	63.149	177.7457
17500.000000	63.951	127.2288
18000.000000	64.264	72.1155
18500.000000	64.198	14.5198
19000.000000	66.436	-53.9592
19500.000000	68.115	-166.1091
