* Measurement data measured by REW V5.20.13
* Source: EXCL: Headset (2- USB-C to 3.5mm Headphone Jack Adapter), MICROPHONE (Master Volume), 0, volume: 0.260
* Format: 512k Log Swept Sine, 1 sweep at -5.0 dBFS with no timing reference
* Dated: Feb 25, 2023 1:07:10 PM
* REW Settings:
*  C-weighting compensation: Off
*  Target level: 75.0 dB
* Note: ; 
* Measurement: C5 R
* Smoothing: 1/12 octave
* Frequency Step: 1/24 octave
* Start Frequency: 20.600 Hz
*
* Freq(Hz)	SPL(dB)	Phase(degrees)
20.600000	103.662	-137.8465
21.200001	103.711	-139.2942
21.799999	103.751	-140.7931
22.400000	103.774	-142.2302
23.000000	103.784	-143.6173
23.600000	103.783	-144.9592
24.299999	103.773	-146.4675
25.000000	103.757	-147.9070
25.799999	103.732	-149.4773
26.500000	103.704	-150.8090
27.200001	103.671	-152.1042
28.000000	103.632	-153.5260
29.000000	103.580	-155.2257
30.000000	103.525	-156.8542
30.700001	103.487	-157.9419
31.500000	103.441	-159.1381
32.500000	103.382	-160.5809
33.500000	103.323	-161.9639
34.500000	103.263	-163.2817
35.500000	103.201	-164.5396
36.500000	103.139	-165.7516
37.500000	103.076	-166.9194
38.700001	103.001	-168.2592
40.000000	102.917	-169.6358
41.200001	102.839	-170.8445
42.500000	102.753	-172.0896
43.700001	102.673	-173.1825
45.000000	102.585	-174.3102
46.200001	102.508	-175.3296
47.500000	102.427	-176.3722
48.700001	102.350	-177.2708
50.000000	102.266	-178.2231
51.500000	102.168	-179.2731
53.000000	102.073	179.7585
54.500000	101.979	178.8344
56.000000	101.881	177.9420
58.000000	101.757	176.8359
60.000000	101.637	175.8060
61.500000	101.543	175.0701
63.000000	101.449	174.3755
65.000000	101.325	173.5092
67.000000	101.204	172.7059
69.000000	101.085	171.9505
71.000000	100.968	171.2371
73.000000	100.852	170.5743
75.000000	100.736	169.9614
77.500000	100.593	169.2349
80.000000	100.452	168.5764
82.500000	100.314	167.9709
85.000000	100.176	167.4205
87.500000	100.041	166.9308
90.000000	99.912	166.4787
92.500000	99.785	166.0575
95.000000	99.661	165.6698
97.500000	99.543	165.3138
100.000000	99.428	164.9998
103.000000	99.292	164.6767
106.000000	99.162	164.3821
109.000000	99.037	164.1319
112.000000	98.916	163.9227
115.000000	98.798	163.7342
118.000000	98.684	163.5768
122.000000	98.538	163.4088
125.000000	98.431	163.3148
128.000000	98.328	163.2489
132.000000	98.195	163.1952
136.000000	98.065	163.1721
140.000000	97.941	163.1776
145.000000	97.792	163.2259
150.000000	97.649	163.3173
155.000000	97.512	163.4507
160.000000	97.380	163.6169
165.000000	97.253	163.8125
170.000000	97.134	164.0285
175.000000	97.018	164.2573
180.000000	96.908	164.5089
185.000000	96.803	164.7847
190.000000	96.702	165.0812
195.000000	96.605	165.3856
200.000000	96.514	165.7017
206.000000	96.408	166.1071
212.000000	96.308	166.5167
218.000000	96.213	166.9407
224.000000	96.122	167.3736
230.000000	96.035	167.8112
236.000000	95.952	168.2672
243.000000	95.861	168.8016
250.000000	95.775	169.3372
258.000000	95.682	169.9525
265.000000	95.606	170.4968
272.000000	95.534	171.0526
280.000000	95.457	171.6917
290.000000	95.370	172.4827
300.000000	95.287	173.2800
307.000000	95.232	173.8432
315.000000	95.175	174.4822
325.000000	95.108	175.2684
335.000000	95.048	176.0610
345.000000	94.992	176.8570
355.000000	94.941	177.6433
365.000000	94.892	178.4324
375.000000	94.848	179.2122
387.000000	94.801	-179.8669
400.000000	94.756	-178.8791
412.000000	94.719	-177.9548
425.000000	94.682	-176.9646
437.000000	94.653	-176.0598
450.000000	94.625	-175.0852
462.000000	94.605	-174.1910
475.000000	94.586	-173.2260
487.000000	94.569	-172.3440
500.000000	94.553	-171.4011
515.000000	94.541	-170.3199
530.000000	94.537	-169.2447
545.000000	94.534	-168.1755
560.000000	94.532	-167.1280
580.000000	94.534	-165.7417
600.000000	94.540	-164.3796
615.000000	94.547	-163.3649
630.000000	94.554	-162.3646
650.000000	94.561	-161.0322
670.000000	94.568	-159.6510
690.000000	94.579	-158.2319
710.000000	94.590	-156.7878
730.000000	94.607	-155.2680
750.000000	94.633	-153.6915
775.000000	94.685	-151.6689
800.000000	94.762	-149.6047
825.000000	94.864	-147.5379
850.000000	94.989	-145.5017
875.000000	95.136	-143.5183
900.000000	95.306	-141.6015
925.000000	95.496	-139.7677
950.000000	95.704	-138.0362
975.000000	95.930	-136.4288
1000.000000	96.168	-134.9468
1030.000000	96.468	-133.3406
1060.000000	96.778	-131.9346
1090.000000	97.091	-130.7337
1120.000000	97.404	-129.7102
1150.000000	97.717	-128.8691
1180.000000	98.019	-128.1942
1220.000000	98.407	-127.4626
1250.000000	98.690	-127.0197
1280.000000	98.964	-126.6570
1320.000000	99.320	-126.2750
1360.000000	99.665	-125.9939
1400.000000	100.002	-125.8002
1450.000000	100.416	-125.6704
1500.000000	100.825	-125.6701
1550.000000	101.230	-125.8094
1600.000000	101.632	-126.1000
1650.000000	102.031	-126.5641
1700.000000	102.426	-127.2181
1750.000000	102.813	-128.0759
1800.000000	103.188	-129.1457
1850.000000	103.547	-130.4275
1900.000000	103.885	-131.9157
1950.000000	104.196	-133.5961
2000.000000	104.477	-135.4454
2060.000000	104.768	-137.8412
2120.000000	105.007	-140.3628
2180.000000	105.193	-142.9340
2240.000000	105.328	-145.4864
2300.000000	105.419	-147.9639
2360.000000	105.474	-150.3242
2430.000000	105.500	-152.8998
2500.000000	105.499	-155.2767
2580.000000	105.474	-157.7642
2650.000000	105.442	-159.7692
2720.000000	105.406	-161.6501
2800.000000	105.365	-163.7040
2900.000000	105.313	-166.2261
3000.000000	105.252	-168.7928
3070.000000	105.199	-170.6538
3150.000000	105.118	-172.8559
3250.000000	104.975	-175.7116
3350.000000	104.770	-178.6309
3450.000000	104.492	178.4845
3550.000000	104.133	175.7595
3650.000000	103.693	173.3462
3750.000000	103.183	171.3831
3870.000000	102.497	169.7604
4000.000000	101.699	169.0262
4120.000000	100.949	169.3112
4250.000000	100.158	170.6076
4370.000000	99.480	172.6085
4500.000000	98.826	175.4750
4620.000000	98.308	178.5917
4750.000000	97.846	-177.6884
4870.000000	97.514	-174.0703
5000.000000	97.256	-170.0879
5150.000000	97.084	-165.5712
5300.000000	97.041	-161.3271
5450.000000	97.116	-157.5568
5600.000000	97.288	-154.4430
5800.000000	97.625	-151.6095
6000.000000	98.004	-150.5668
6150.000000	98.253	-150.9998
6300.000000	98.422	-152.3150
6500.000000	98.474	-154.8691
6700.000000	98.328	-157.3894
6900.000000	98.072	-158.9921
7100.000000	97.876	-159.3620
7300.000000	97.908	-159.0799
7500.000000	98.243	-159.3294
7750.000000	98.985	-162.4442
8000.000000	99.661	-170.4916
8250.000000	99.708	177.6778
8500.000000	98.986	166.2660
8750.000000	97.815	157.4347
9000.000000	96.540	149.1229
9250.000000	94.555	141.0336
9500.000000	90.901	153.0745
9750.000000	89.354	179.9575
10000.000000	91.102	-164.9942
10300.000000	93.326	-162.4372
10600.000000	95.194	-168.2917
10900.000000	96.552	178.1280
11200.000000	97.025	157.8191
11500.000000	96.484	133.8276
11800.000000	94.988	108.7092
12200.000000	91.561	78.6160
12500.000000	88.139	64.3857
12800.000000	84.917	57.5866
13200.000000	82.940	50.2551
13600.000000	82.704	35.2049
14000.000000	81.852	20.1127
14500.000000	80.582	10.8981
15000.000000	79.914	5.0834
15500.000000	79.335	-2.9785
16000.000000	78.232	-13.1649
16500.000000	76.487	-23.2236
17000.000000	74.133	-31.6311
17500.000000	71.249	-31.1722
18000.000000	71.228	-18.4239
18500.000000	75.184	-25.3821
19000.000000	77.794	-70.2729
19500.000000	78.381	-134.2167
