* Measurement data measured by REW V5.20
* Source: Headset (USB-C to 3.5mm Headphone Jack Adapter), MICROPHONE (Master Volume), R, volume: 0.260. Timing signal peak level -57.1 dBFS, measurement signal peak level -21.3 dBFS
* Format: 512k Log Swept Sine, 1 sweep at 0.0 dBFS using an acoustic timing reference
* Dated: Dec 23, 2021 8:10:37 PM
* REW Settings:
*  C-weighting compensation: Off
*  Target level: 75.0 dB
* Note: ; Delay -0.0875 ms (-30 mm, -1.18 in) using estimated IR delay relative to Acoustic reference on HEADPHONE R with no timing offset
* Measurement: CRA L
* Smoothing: 1/48 octave
* Frequency Step: 1/24 octave
* Start Frequency: 20.600 Hz
*
* Freq(Hz)	SPL(dB)	Phase(degrees)
20.600000	96.966034	-140.8789
21.200001	97.005066	-142.6721
21.799999	97.019547	-144.3256
22.400000	97.026398	-145.9127
23.000000	97.028976	-147.5328
23.600000	97.008690	-149.1279
24.299999	96.964508	-150.7929
25.000000	96.943977	-152.3399
25.799999	96.908272	-154.2835
26.500000	96.823601	-155.8743
27.200001	96.767235	-157.0689
28.000000	96.765579	-158.6343
29.000000	96.658806	-161.1139
30.000000	96.513016	-162.5554
30.700001	96.489227	-163.4274
31.500000	96.476311	-164.9362
32.500000	96.402542	-166.9443
33.500000	96.291763	-168.7589
34.500000	96.165840	-170.2917
35.500000	96.059929	-171.6609
36.500000	95.964592	-172.9906
37.500000	95.879913	-174.3047
38.700001	95.791664	-175.8058
40.000000	95.702332	-177.3114
41.200001	95.606415	-178.4651
42.500000	95.463959	-179.6979
43.700001	95.337067	178.9544
45.000000	95.237198	177.6337
46.200001	95.116280	176.5923
47.500000	95.010567	175.3085
48.700001	94.905396	174.4504
50.000000	94.788811	173.2809
51.500000	94.644791	172.2380
53.000000	94.531708	171.1521
54.500000	94.399277	170.0432
56.000000	94.262985	169.1049
58.000000	94.098541	167.8954
60.000000	93.932602	166.7273
61.500000	93.809891	165.9864
63.000000	93.690575	165.2267
65.000000	93.530937	164.2814
67.000000	93.373070	163.4070
69.000000	93.216934	162.5855
71.000000	93.063667	161.8149
73.000000	92.911697	161.1036
75.000000	92.761246	160.4406
77.500000	92.577942	159.6797
80.000000	92.396393	158.9847
82.500000	92.226555	158.3668
85.000000	92.044868	157.7677
87.500000	91.874802	157.2427
90.000000	91.716400	156.7766
92.500000	91.547874	156.3231
95.000000	91.390228	155.9437
97.500000	91.235725	155.5959
100.000000	91.086960	155.2687
103.000000	90.907738	154.9375
106.000000	90.741386	154.6520
109.000000	90.585403	154.3895
112.000000	90.428741	154.1888
115.000000	90.274864	154.0087
118.000000	90.127975	153.8764
122.000000	89.937080	153.7356
125.000000	89.798317	153.6549
128.000000	89.663116	153.6059
132.000000	89.487679	153.5714
136.000000	89.317093	153.5879
140.000000	89.152252	153.6359
145.000000	88.952545	153.7367
150.000000	88.762360	153.8798
155.000000	88.578430	154.0682
160.000000	88.401573	154.2968
165.000000	88.230873	154.5600
170.000000	88.067657	154.8374
175.000000	87.910324	155.1476
180.000000	87.755333	155.4777
185.000000	87.610481	155.8347
190.000000	87.469215	156.2038
195.000000	87.332901	156.5987
200.000000	87.200294	157.0021
206.000000	87.050385	157.4804
212.000000	86.903191	158.0151
218.000000	86.762535	158.5525
224.000000	86.629570	159.0999
230.000000	86.500542	159.6641
236.000000	86.377106	160.2317
243.000000	86.239105	160.9047
250.000000	86.107788	161.5850
258.000000	85.963852	162.3889
265.000000	85.844887	163.0764
272.000000	85.729202	163.7842
280.000000	85.604889	164.5957
290.000000	85.457161	165.6324
300.000000	85.320816	166.6419
307.000000	85.227814	167.3773
315.000000	85.128098	168.1962
325.000000	85.007751	169.2314
335.000000	84.896332	170.2626
345.000000	84.791672	171.2883
355.000000	84.691284	172.3163
365.000000	84.597275	173.3446
375.000000	84.508217	174.3685
387.000000	84.407196	175.5836
400.000000	84.306541	176.9077
412.000000	84.219841	178.1167
425.000000	84.131790	179.4188
437.000000	84.054787	-179.3895
450.000000	83.978180	-178.0938
462.000000	83.914032	-176.9045
475.000000	83.847359	-175.6312
487.000000	83.790543	-174.4591
500.000000	83.730827	-173.1776
515.000000	83.669373	-171.7099
530.000000	83.613220	-170.2564
545.000000	83.562607	-168.7991
560.000000	83.515388	-167.3628
580.000000	83.461128	-165.4269
600.000000	83.413467	-163.4962
615.000000	83.383041	-162.0429
630.000000	83.357208	-160.6073
650.000000	83.327377	-158.6591
670.000000	83.303329	-156.7254
690.000000	83.283943	-154.7687
710.000000	83.265526	-152.8099
730.000000	83.243530	-150.7846
750.000000	83.199890	-148.5545
775.000000	83.223518	-144.5820
800.000000	83.526184	-142.0452
825.000000	83.699898	-139.3822
850.000000	83.966614	-137.7523
875.000000	84.110504	-136.2983
900.000000	84.239052	-134.6028
925.000000	84.380333	-132.8542
950.000000	84.533180	-131.1500
975.000000	84.697006	-129.5017
1000.000000	84.867722	-127.9455
1030.000000	85.081612	-126.2092
1060.000000	85.298782	-124.6121
1090.000000	85.516205	-123.1695
1120.000000	85.731873	-121.8661
1150.000000	85.940811	-120.6999
1180.000000	86.140060	-119.6425
1220.000000	86.389465	-118.3869
1250.000000	86.563675	-117.5266
1280.000000	86.726761	-116.7246
1320.000000	86.927040	-115.7132
1360.000000	87.109680	-114.7463
1400.000000	87.278168	-113.8026
1450.000000	87.471451	-112.6447
1500.000000	87.650139	-111.5073
1550.000000	87.815720	-110.3771
1600.000000	87.971947	-109.2625
1650.000000	88.119965	-108.1633
1700.000000	88.259361	-107.0844
1750.000000	88.391571	-106.0306
1800.000000	88.515350	-105.0028
1850.000000	88.632095	-103.9937
1900.000000	88.739243	-103.0055
1950.000000	88.838989	-102.0363
2000.000000	88.929794	-101.0758
2060.000000	89.025612	-99.9327
2120.000000	89.109619	-98.7796
2180.000000	89.181122	-97.6140
2240.000000	89.240768	-96.4227
2300.000000	89.290314	-95.1899
2360.000000	89.331100	-93.9100
2430.000000	89.369408	-92.3504
2500.000000	89.401459	-90.7069
2580.000000	89.433273	-88.7267
2650.000000	89.461769	-86.9031
2720.000000	89.493103	-85.0033
2800.000000	89.533806	-82.7380
2900.000000	89.602524	-79.7968
3000.000000	89.691437	-76.7743
3070.000000	89.769661	-74.6245
3150.000000	89.874901	-72.1626
3250.000000	90.032440	-69.1009
3350.000000	90.219154	-66.0952
3450.000000	90.434647	-63.1900
3550.000000	90.678490	-60.4269
3650.000000	90.949280	-57.8417
3750.000000	91.243843	-55.4779
3870.000000	91.625092	-53.0022
4000.000000	92.063362	-50.8474
4120.000000	92.477127	-49.4411
4250.000000	92.915749	-48.6524
4370.000000	93.283112	-48.6708
4500.000000	93.600578	-49.5125
4620.000000	93.776039	-50.9631
4750.000000	93.796875	-53.0001
4870.000000	93.638634	-54.9764
5000.000000	93.276291	-56.7964
5150.000000	92.652786	-57.9973
5300.000000	91.872391	-57.9651
5450.000000	90.977158	-56.6854
5600.000000	89.821548	-53.8347
5800.000000	89.538025	-41.3949
6000.000000	88.844162	-39.1277
6150.000000	88.258530	-34.0969
6300.000000	87.790138	-28.2724
6500.000000	87.335045	-19.8388
6700.000000	87.066010	-10.9614
6900.000000	86.984299	-1.8741
7100.000000	87.106140	7.3011
7300.000000	87.464729	16.2127
7500.000000	88.049309	24.5674
7750.000000	89.158821	33.8090
8000.000000	90.760971	40.3994
8250.000000	92.843399	41.7034
8500.000000	94.911736	33.3144
8750.000000	95.434448	15.2073
9000.000000	93.789154	0.9255
9250.000000	91.505051	-2.7041
9500.000000	89.579956	0.3816
9750.000000	88.180672	6.5551
10000.000000	87.254395	13.9318
10300.000000	86.682762	23.0289
10600.000000	86.648285	31.3930
10900.000000	87.159332	37.5875
11200.000000	88.102638	39.6911
11500.000000	89.166504	35.1790
11800.000000	89.521744	23.0503
12200.000000	87.757660	6.0849
12500.000000	85.590790	0.7839
12800.000000	83.595573	0.5920
13200.000000	81.536850	3.9542
13600.000000	80.233505	8.4582
14000.000000	79.657898	11.7468
14500.000000	79.973175	11.5347
15000.000000	81.404404	0.4988
15500.000000	82.480469	-32.4525
16000.000000	78.534439	-76.3545
16500.000000	77.644127	-55.6949
17000.000000	77.702286	-105.8631
17500.000000	75.190933	-142.9238
18000.000000	72.898331	178.6381
18500.000000	70.220764	132.4127
19000.000000	66.856346	79.8006
19500.000000	63.048874	16.6879
