* Measurement data measured by REW V5.20
* Source: Headset (USB-C to 3.5mm Headphone Jack Adapter), MICROPHONE (Master Volume), R, volume: 0.260
* Format: 512k Log Swept Sine, 1 sweep at 0.0 dBFS with no timing reference
* Dated: Dec 31, 2021 3:28:32 PM
* REW Settings:
*  C-weighting compensation: Off
*  Target level: 75.0 dB
* Note: ; 
* Measurement: FHE Eclipse R
* Smoothing: 1/48 octave
* Frequency Step: 1/24 octave
* Start Frequency: 20.600 Hz
*
* Freq(Hz)	SPL(dB)	Phase(degrees)
20.600000	97.232269	-148.4900
21.200001	97.267471	-149.9954
21.799999	97.287430	-151.4348
22.400000	97.291672	-152.8512
23.000000	97.282761	-154.2273
23.600000	97.265236	-155.5533
24.299999	97.235657	-157.0604
25.000000	97.195061	-158.5115
25.799999	97.141800	-160.0967
26.500000	97.096565	-161.4352
27.200001	97.048096	-162.7253
28.000000	96.984802	-164.1516
29.000000	96.906723	-165.8785
30.000000	96.827332	-167.5013
30.700001	96.771339	-168.6048
31.500000	96.708237	-169.8287
32.500000	96.625587	-171.3063
33.500000	96.544388	-172.7140
34.500000	96.459702	-174.0522
35.500000	96.371956	-175.3828
36.500000	96.290726	-176.6060
37.500000	96.208138	-177.8245
38.700001	96.104149	-179.1832
40.000000	95.995941	179.4086
41.200001	95.891891	178.1373
42.500000	95.780327	176.8659
43.700001	95.682571	175.7267
45.000000	95.576065	174.5522
46.200001	95.474091	173.5260
47.500000	95.363159	172.4455
48.700001	95.266022	171.4827
50.000000	95.156929	170.5022
51.500000	95.034264	169.4388
53.000000	94.911476	168.4057
54.500000	94.788467	167.4338
56.000000	94.669083	166.5030
58.000000	94.511322	165.3423
60.000000	94.360168	164.2785
61.500000	94.241959	163.4807
63.000000	94.126625	162.7396
65.000000	93.977448	161.8120
67.000000	93.828720	160.9381
69.000000	93.680801	160.1359
71.000000	93.536812	159.3699
73.000000	93.392715	158.6491
75.000000	93.250008	157.9772
77.500000	93.075165	157.1922
80.000000	92.901016	156.4763
82.500000	92.733139	155.8086
85.000000	92.565842	155.1971
87.500000	92.402000	154.6255
90.000000	92.246696	154.0484
92.500000	92.088852	153.6304
95.000000	91.936569	153.2229
97.500000	91.803360	152.8478
100.000000	91.645935	152.4187
103.000000	91.477951	152.0150
106.000000	91.315491	151.6539
109.000000	91.159317	151.3334
112.000000	91.006439	151.0524
115.000000	90.857697	150.8026
118.000000	90.713150	150.5777
122.000000	90.526314	150.3411
125.000000	90.390518	150.1906
128.000000	90.257217	150.0583
132.000000	90.085075	149.9116
136.000000	89.915558	149.8173
140.000000	89.753380	149.7633
145.000000	89.554718	149.7259
150.000000	89.364807	149.7318
155.000000	89.181404	149.7899
160.000000	89.004486	149.8714
165.000000	88.832123	149.9886
170.000000	88.667168	150.1494
175.000000	88.507866	150.3087
180.000000	88.350433	150.5032
185.000000	88.203468	150.7316
190.000000	88.059158	150.9453
195.000000	87.919052	151.2145
200.000000	87.784958	151.4992
206.000000	87.626266	151.8428
212.000000	87.474983	152.2167
218.000000	87.330719	152.6005
224.000000	87.192375	152.9903
230.000000	87.056946	153.4025
236.000000	86.927773	153.8319
243.000000	86.782272	154.3298
250.000000	86.642288	154.8530
258.000000	86.489792	155.4518
265.000000	86.361725	155.9965
272.000000	86.239410	156.5480
280.000000	86.105293	157.1885
290.000000	85.945160	157.9990
300.000000	85.796013	158.7922
307.000000	85.692947	159.3839
315.000000	85.583199	160.0483
325.000000	85.450653	160.8946
335.000000	85.325226	161.7334
345.000000	85.206482	162.5753
355.000000	85.093407	163.4321
365.000000	84.984543	164.2835
375.000000	84.881798	165.1356
387.000000	84.763168	166.1858
400.000000	84.641373	167.3110
412.000000	84.534325	168.3712
425.000000	84.425659	169.5685
437.000000	84.331444	170.6814
450.000000	84.239227	171.9325
462.000000	84.166519	173.0963
475.000000	84.099609	174.3690
487.000000	84.047188	175.5414
500.000000	84.001976	176.7897
515.000000	83.958885	178.2071
530.000000	83.928757	179.5965
545.000000	83.909027	-179.0499
560.000000	83.899658	-177.7220
580.000000	83.897285	-176.0041
600.000000	83.907204	-174.3526
615.000000	83.923012	-173.1508
630.000000	83.943390	-171.9868
650.000000	83.977242	-170.4850
670.000000	84.019943	-169.0327
690.000000	84.069328	-167.6196
710.000000	84.125511	-166.2776
730.000000	84.187279	-164.9788
750.000000	84.253639	-163.7298
775.000000	84.340050	-162.2095
800.000000	84.432091	-160.7519
825.000000	84.532776	-159.3288
850.000000	84.638351	-157.9444
875.000000	84.752045	-156.5982
900.000000	84.875870	-155.2872
925.000000	85.009552	-154.0287
950.000000	85.153198	-152.8310
975.000000	85.307808	-151.7117
1000.000000	85.470337	-150.6828
1030.000000	85.674553	-149.5809
1060.000000	85.885452	-148.6329
1090.000000	86.097229	-147.8419
1120.000000	86.305740	-147.2035
1150.000000	86.508492	-146.7087
1180.000000	86.700226	-146.3250
1220.000000	86.939224	-145.9686
1250.000000	87.103699	-145.7910
1280.000000	87.255371	-145.6622
1320.000000	87.440826	-145.5498
1360.000000	87.606049	-145.4904
1400.000000	87.755196	-145.4568
1450.000000	87.918442	-145.4360
1500.000000	88.060478	-145.4161
1550.000000	88.179138	-145.3890
1600.000000	88.278458	-145.3299
1650.000000	88.357147	-145.2058
1700.000000	88.417404	-144.9926
1750.000000	88.461967	-144.6540
1800.000000	88.493927	-144.1488
1850.000000	88.521744	-143.4522
1900.000000	88.552124	-142.5362
1950.000000	88.595108	-141.3978
2000.000000	88.661438	-140.0337
2060.000000	88.785957	-138.1274
2120.000000	88.976006	-136.0077
2180.000000	89.246910	-133.7673
2240.000000	89.611702	-131.5485
2300.000000	90.078140	-129.5147
2360.000000	90.650169	-127.8577
2430.000000	91.443428	-126.7009
2500.000000	92.349060	-126.7671
2580.000000	93.450378	-128.8849
2650.000000	94.358948	-132.8925
2720.000000	95.065964	-138.8681
2800.000000	95.450294	-147.2236
2900.000000	95.222404	-157.2752
3000.000000	94.472702	-164.3563
3070.000000	93.844666	-167.2370
3150.000000	93.150497	-168.8123
3250.000000	92.404655	-168.9349
3350.000000	91.839333	-167.7473
3450.000000	91.456100	-165.8988
3550.000000	91.238625	-163.7975
3650.000000	91.167068	-161.7691
3750.000000	91.215111	-160.0708
3870.000000	91.382996	-158.7581
4000.000000	91.611107	-158.4847
4120.000000	91.750519	-159.1967
4250.000000	91.715515	-160.2498
4370.000000	91.515289	-160.2065
4500.000000	91.338661	-157.7089
4620.000000	91.624466	-153.5767
4750.000000	92.619301	-151.0898
4870.000000	93.709946	-153.0253
5000.000000	94.760292	-158.6099
5150.000000	95.686913	-169.8121
5300.000000	95.638474	173.9802
5450.000000	94.142479	159.4558
5600.000000	91.910164	152.3089
5800.000000	89.086288	152.3159
6000.000000	86.912598	158.2153
6150.000000	85.720337	164.5010
6300.000000	84.863922	171.5082
6500.000000	84.184769	-178.8089
6700.000000	83.982437	-169.3935
6900.000000	84.226257	-160.9258
7100.000000	84.898872	-154.2569
7300.000000	85.923203	-150.7944
7500.000000	87.029182	-151.8870
7750.000000	87.843857	-159.6300
8000.000000	87.425789	-168.8563
8250.000000	86.263062	-173.2250
8500.000000	85.131104	-172.7446
8750.000000	84.341240	-169.7936
9000.000000	83.905510	-166.2823
9250.000000	83.823395	-163.1347
9500.000000	83.900925	-162.2020
9750.000000	83.791206	-163.8498
10000.000000	82.809189	-165.2120
10300.000000	81.717567	-148.5215
10600.000000	85.000099	-137.9380
10900.000000	87.582062	-149.2941
11200.000000	88.643051	-166.1775
11500.000000	88.744072	177.3808
11800.000000	88.475021	162.1957
12200.000000	87.892418	140.6256
12500.000000	87.025101	121.5544
12800.000000	85.366982	101.5462
13200.000000	82.048164	79.8068
13600.000000	78.456856	66.0942
14000.000000	75.306900	57.5844
14500.000000	72.210068	49.9471
15000.000000	69.949036	43.0440
15500.000000	68.677223	34.2896
16000.000000	66.860229	17.1527
16500.000000	66.244118	13.1735
17000.000000	66.588051	-8.5651
17500.000000	66.744934	-36.3060
18000.000000	67.356598	-73.2633
18500.000000	68.592987	-126.2734
19000.000000	69.974640	152.4490
19500.000000	69.008522	32.6517
