* Measurement data measured by REW V5.20 Beta 31
* Source: IEC-711 (3- USB Sound Device        ), MICROPHONE (Master Volume), R, volume: 0.530
* Format: 1M Log Swept Sine, 1 sweep at 0.0 dBFS With no timing reference
* Dated: Feb 3, 2020 10:03:18 PM
* REW Settings:
*  C-weighting compensation: Off
*  Target level: 75.0 dB
* Note: ; 
* Measurement: DK2001 L
* Smoothing: 1/48 octave
* Frequency Step: 1/24 octave
* Start Frequency: 20.000 Hz
*
* Freq(Hz)	SPL(dB)	Phase(degrees)
20.000000	87.213142	-136.3683
20.600000	87.272026	-136.5495
21.200001	87.294754	-136.4065
21.799999	87.319473	-136.2501
22.400000	87.336014	-136.2632
23.000000	87.337463	-136.3906
23.600000	87.333916	-136.5641
24.299999	87.333450	-136.8042
25.000000	87.340096	-137.0292
25.799999	87.364182	-137.2190
26.500000	87.395813	-137.3421
27.200001	87.428047	-137.4056
28.000000	87.460037	-137.3950
29.000000	87.482803	-137.2503
30.000000	87.500191	-136.9780
30.700001	87.510719	-136.8414
31.500000	87.508194	-136.7246
32.500000	87.503624	-136.5380
33.500000	87.506409	-136.4016
34.500000	87.515915	-136.2018
35.500000	87.545219	-136.0411
36.500000	87.555588	-135.8884
37.500000	87.562454	-135.5586
38.700001	87.573036	-135.1353
40.000000	87.579079	-134.6907
41.200001	87.569283	-134.3048
42.500000	87.570641	-133.8775
43.700001	87.565979	-133.5067
45.000000	87.573296	-133.0412
46.200001	87.577049	-132.5724
47.500000	87.588913	-132.0536
48.700001	87.581345	-131.5882
50.000000	87.572716	-130.9768
51.500000	87.568604	-130.3234
53.000000	87.559273	-129.6233
54.500000	87.574562	-129.0417
56.000000	87.540955	-128.3057
58.000000	87.578041	-127.4183
60.000000	87.610397	-126.5418
61.500000	87.561409	-125.9843
63.000000	87.572220	-125.1660
65.000000	87.556137	-124.2208
67.000000	87.560616	-123.3119
69.000000	87.566063	-122.4184
71.000000	87.572670	-121.4553
73.000000	87.572845	-120.5509
75.000000	87.575806	-119.6016
77.500000	87.579155	-118.4534
80.000000	87.565697	-117.2780
82.500000	87.564697	-116.1659
85.000000	87.565308	-115.0749
87.500000	87.562126	-113.9400
90.000000	87.576614	-112.8495
92.500000	87.551529	-111.7006
95.000000	87.542267	-110.5877
97.500000	87.531693	-109.5181
100.000000	87.516006	-108.4563
103.000000	87.495628	-107.0847
106.000000	87.471344	-105.8016
109.000000	87.445221	-104.5044
112.000000	87.420128	-103.2125
115.000000	87.390030	-101.9517
118.000000	87.366653	-100.6214
122.000000	87.326218	-98.9708
125.000000	87.273270	-97.5629
128.000000	87.236938	-96.1765
132.000000	87.189850	-94.4517
136.000000	87.129036	-92.7229
140.000000	87.084488	-90.9234
145.000000	87.004951	-88.6684
150.000000	86.927650	-86.4137
155.000000	86.846474	-84.1860
160.000000	86.767532	-81.9188
165.000000	86.689423	-79.6262
170.000000	86.613846	-77.3378
175.000000	86.526718	-75.1000
180.000000	86.449173	-72.7650
185.000000	86.360260	-70.4994
190.000000	86.280304	-68.2093
195.000000	86.186890	-65.9454
200.000000	86.106354	-63.6245
206.000000	86.007957	-60.8357
212.000000	85.901527	-58.1041
218.000000	85.803185	-55.3245
224.000000	85.705269	-52.5500
230.000000	85.591217	-49.8073
236.000000	85.499725	-47.0068
243.000000	85.382477	-43.7247
250.000000	85.253845	-40.5892
258.000000	85.114807	-36.8210
265.000000	84.989929	-33.5659
272.000000	84.855743	-30.3010
280.000000	84.721581	-26.4724
290.000000	84.538414	-21.6783
300.000000	84.406670	-16.6705
307.000000	84.323502	-13.3066
315.000000	84.233467	-9.6592
325.000000	84.109741	-5.1455
335.000000	83.964767	-0.6574
345.000000	83.825111	3.8515
355.000000	83.683990	8.3564
365.000000	83.543617	12.8958
375.000000	83.388611	17.4912
387.000000	83.223885	22.9052
400.000000	83.047501	28.8083
412.000000	82.896118	34.2859
425.000000	82.717903	40.1872
437.000000	82.577919	45.6085
450.000000	82.408249	51.4033
462.000000	82.267197	56.7773
475.000000	82.112549	62.7946
487.000000	81.982834	68.0935
500.000000	81.845352	73.8702
515.000000	81.702827	80.5740
530.000000	81.547386	87.1418
545.000000	81.405655	93.8034
560.000000	81.266212	100.3515
580.000000	81.092422	109.0864
600.000000	80.928177	117.8521
615.000000	80.806671	124.2736
630.000000	80.700058	130.7721
650.000000	80.564621	139.3339
670.000000	80.428566	147.8492
690.000000	80.306862	156.4259
710.000000	80.209129	164.8871
730.000000	80.097870	173.2545
750.000000	80.008652	-178.2513
775.000000	79.920853	-167.8376
800.000000	79.847458	-157.4973
825.000000	79.808075	-147.1808
850.000000	79.780968	-136.8625
875.000000	79.760468	-126.6611
900.000000	79.794548	-116.5953
925.000000	79.835426	-106.5587
950.000000	79.906143	-96.5714
975.000000	80.022034	-86.7541
1000.000000	80.124748	-76.9425
1030.000000	80.376877	-65.7832
1060.000000	80.625397	-54.7791
1090.000000	80.917747	-44.1870
1120.000000	81.220177	-34.2419
1150.000000	81.481255	-24.8265
1180.000000	81.691902	-15.4698
1220.000000	81.961273	-2.9565
1250.000000	82.186028	6.6124
1280.000000	82.466621	15.9817
1320.000000	82.892555	27.8163
1360.000000	83.298958	39.0549
1400.000000	83.702705	49.9736
1450.000000	84.190887	63.0843
1500.000000	84.684853	75.7662
1550.000000	85.177551	88.0341
1600.000000	85.674934	99.7761
1650.000000	86.182640	111.1056
1700.000000	86.680077	121.9403
1750.000000	87.183167	132.2569
1800.000000	87.668182	142.1146
1850.000000	88.140282	151.5110
1900.000000	88.594467	160.5426
1950.000000	89.034012	169.1394
2000.000000	89.471863	177.4380
2060.000000	89.977707	-173.1066
2120.000000	90.498955	-164.3210
2180.000000	91.008545	-156.3876
2240.000000	91.473282	-149.4620
2300.000000	91.835861	-143.5543
2360.000000	92.045746	-138.4421
2430.000000	92.044609	-132.8812
2500.000000	91.803688	-127.0435
2580.000000	91.338203	-119.3694
2650.000000	90.855568	-111.7057
2720.000000	90.380615	-103.2748
2800.000000	89.890686	-93.0380
2900.000000	89.381668	-79.8309
3000.000000	88.981743	-66.6721
3070.000000	88.742737	-57.7878
3150.000000	88.488281	-47.9481
3250.000000	88.149567	-36.1915
3350.000000	87.752350	-24.7819
3450.000000	87.283379	-13.3930
3550.000000	86.744270	-1.6325
3650.000000	86.203880	10.7626
3750.000000	85.701813	23.9931
3870.000000	85.272568	40.6853
4000.000000	85.146011	59.5447
4120.000000	85.454254	76.4562
4250.000000	86.164795	92.7900
4370.000000	87.094757	105.1559
4500.000000	88.224884	114.7557
4620.000000	89.181953	119.6219
4750.000000	89.749741	120.5872
4870.000000	89.463402	119.7147
5000.000000	88.306892	121.6896
5150.000000	86.750778	130.7212
5300.000000	85.701218	144.0156
5450.000000	85.285889	157.9807
5600.000000	85.353081	170.2971
5800.000000	85.701210	-177.5409
6000.000000	85.846756	-168.5403
6150.000000	85.798759	-162.1904
6300.000000	85.732727	-155.7644
6500.000000	85.716232	-146.9401
6700.000000	85.896500	-138.4032
6900.000000	86.326324	-130.4714
7100.000000	87.066284	-123.7825
7300.000000	88.182556	-118.9070
7500.000000	89.804977	-116.9954
7750.000000	92.632843	-123.9529
8000.000000	94.677513	-151.0100
8250.000000	93.071518	172.8225
8500.000000	89.101845	156.1674
8750.000000	85.796753	150.8732
9000.000000	83.273972	148.9512
9250.000000	81.300636	147.9069
9500.000000	79.681137	146.0220
9750.000000	78.298035	143.4861
10000.000000	77.009476	139.9308
10300.000000	75.578316	135.1814
10600.000000	74.191277	129.9579
10900.000000	72.983200	124.6488
11200.000000	72.004715	118.7939
11500.000000	71.301765	113.5292
11800.000000	71.436996	105.4349
12200.000000	71.390488	80.4619
12500.000000	69.850533	59.6064
12800.000000	67.091454	47.0148
13200.000000	66.576408	52.2773
13600.000000	69.097641	31.9128
14000.000000	70.449173	-1.2059
14500.000000	71.668732	-48.1284
15000.000000	73.002350	-108.5022
15500.000000	71.944176	176.4809
16000.000000	69.819412	94.8394
16500.000000	62.676868	-13.7372
17000.000000	46.854309	-121.1997
17500.000000	46.523445	120.2734
18000.000000	43.454906	118.2295
18500.000000	47.542084	-167.2100
19000.000000	52.202118	-75.7363
19500.000000	50.625992	-169.0557
