* Measurement data measured by REW V5.20.13
* Source: Headset (2- USB-C to 3.5mm Headphone Jack Adapter), no input selected, R, volume: no control. Timing signal peak level -68.0 dBFS, measurement signal peak level -25.4 dBFS
* Format: 512k Log Swept Sine, 1 sweep at -6.0 dBFS using an acoustic timing reference
* Dated: May 27, 2023 10:26:20 PM
* REW Settings:
*  C-weighting compensation: Off
*  Target level: 75.0 dB
* Note: ; Delay 0.0608 ms (21 mm, 0.82 in) using estimated IR delay relative to Acoustic reference played from  L with no timing offset
* Measurement: Dolce L
* Smoothing: 1/48 octave
* Frequency Step: 1/24 octave
* Start Frequency: 20.600 Hz
*
* Freq(Hz)	SPL(dB)	Phase(degrees)
20.600000	85.655	53.6068
21.200001	85.747	51.9617
21.799999	85.826	50.2083
22.400000	85.863	48.8581
23.000000	85.872	47.8239
23.600000	85.911	46.5989
24.299999	85.988	44.8021
25.000000	86.005	43.2295
25.799999	85.989	42.0230
26.500000	86.053	40.7504
27.200001	86.093	39.2009
28.000000	86.009	38.0485
29.000000	85.972	36.8757
30.000000	86.030	34.7324
30.700001	86.013	33.6322
31.500000	85.986	32.6770
32.500000	85.977	31.1184
33.500000	85.977	29.8134
34.500000	85.963	28.5760
35.500000	85.947	27.3427
36.500000	85.939	26.2205
37.500000	85.917	24.9104
38.700001	85.902	23.6253
40.000000	85.879	22.2544
41.200001	85.858	21.0067
42.500000	85.838	19.6930
43.700001	85.820	18.7376
45.000000	85.782	17.4933
46.200001	85.754	16.4913
47.500000	85.724	15.3376
48.700001	85.703	14.3569
50.000000	85.688	13.4008
51.500000	85.646	12.2418
53.000000	85.613	11.1857
54.500000	85.574	10.1794
56.000000	85.541	9.1412
58.000000	85.504	7.8449
60.000000	85.400	7.0058
61.500000	85.401	5.7745
63.000000	85.363	4.9552
65.000000	85.317	3.9438
67.000000	85.262	2.8936
69.000000	85.214	1.8762
71.000000	85.165	0.9157
73.000000	85.114	-0.0168
75.000000	85.045	-0.8079
77.500000	85.050	-2.7068
80.000000	84.915	-2.9157
82.500000	84.839	-3.8642
85.000000	84.759	-4.7938
87.500000	84.688	-5.6397
90.000000	84.617	-6.5149
92.500000	84.544	-7.2930
95.000000	84.467	-8.0684
97.500000	84.396	-8.8012
100.000000	84.328	-9.5027
103.000000	84.245	-10.3073
106.000000	84.164	-11.0776
109.000000	84.079	-11.8071
112.000000	84.006	-12.5138
115.000000	83.922	-13.1706
118.000000	83.845	-13.7920
122.000000	83.736	-14.6191
125.000000	83.660	-15.1727
128.000000	83.581	-15.7216
132.000000	83.477	-16.4170
136.000000	83.372	-17.0536
140.000000	83.273	-17.6650
145.000000	83.146	-18.3599
150.000000	83.013	-19.0191
155.000000	82.911	-19.6204
160.000000	82.762	-20.1900
165.000000	82.643	-20.6920
170.000000	82.517	-21.1638
175.000000	82.400	-21.5967
180.000000	82.289	-22.0698
185.000000	82.164	-22.3472
190.000000	82.049	-22.6757
195.000000	81.936	-22.9675
200.000000	81.826	-23.2351
206.000000	81.687	-23.5417
212.000000	81.561	-23.7955
218.000000	81.434	-24.0106
224.000000	81.311	-24.1924
230.000000	81.190	-24.3815
236.000000	81.073	-24.5043
243.000000	80.935	-24.6347
250.000000	80.803	-24.7304
258.000000	80.656	-24.8145
265.000000	80.532	-24.8479
272.000000	80.411	-24.8546
280.000000	80.274	-24.8473
290.000000	80.111	-24.7903
300.000000	79.970	-24.6947
307.000000	79.846	-24.6552
315.000000	79.729	-24.5181
325.000000	79.586	-24.3246
335.000000	79.445	-24.1256
345.000000	79.313	-23.8853
355.000000	79.185	-23.6492
365.000000	79.061	-23.3803
375.000000	78.944	-23.0773
387.000000	78.806	-22.7029
400.000000	78.666	-22.2690
412.000000	78.542	-21.8355
425.000000	78.413	-21.3573
437.000000	78.304	-20.8877
450.000000	78.187	-20.3500
462.000000	78.084	-19.8529
475.000000	77.979	-19.2730
487.000000	77.893	-18.7361
500.000000	77.799	-18.1323
515.000000	77.704	-17.4394
530.000000	77.612	-16.7474
545.000000	77.530	-16.0286
560.000000	77.450	-15.3268
580.000000	77.351	-14.3623
600.000000	77.261	-13.3731
615.000000	77.199	-12.6098
630.000000	77.139	-11.8090
650.000000	77.069	-10.7491
670.000000	77.008	-9.5892
690.000000	76.961	-8.3987
710.000000	76.933	-7.1404
730.000000	76.919	-5.8311
750.000000	76.932	-4.5572
775.000000	76.971	-2.9703
800.000000	77.042	-1.4355
825.000000	77.137	-0.0508
850.000000	77.248	1.2359
875.000000	77.373	2.4206
900.000000	77.509	3.4915
925.000000	77.649	4.5245
950.000000	77.803	5.4622
975.000000	77.970	6.3268
1000.000000	78.145	7.0869
1030.000000	78.370	7.8673
1060.000000	78.602	8.4870
1090.000000	78.841	8.9289
1120.000000	79.079	9.2041
1150.000000	79.311	9.3231
1180.000000	79.536	9.2891
1220.000000	79.819	9.0977
1250.000000	80.017	8.8613
1280.000000	80.204	8.5744
1320.000000	80.437	8.1336
1360.000000	80.652	7.6754
1400.000000	80.855	7.2035
1450.000000	81.097	6.6285
1500.000000	81.333	6.0747
1550.000000	81.567	5.5233
1600.000000	81.794	5.0014
1650.000000	82.032	4.4943
1700.000000	82.274	3.9586
1750.000000	82.525	3.3983
1800.000000	82.782	2.8038
1850.000000	83.046	2.1613
1900.000000	83.317	1.4643
1950.000000	83.597	0.6924
2000.000000	83.881	-0.1542
2060.000000	84.230	-1.2793
2120.000000	84.585	-2.5326
2180.000000	84.945	-3.9302
2240.000000	85.309	-5.4720
2300.000000	85.674	-7.1616
2360.000000	86.037	-9.0021
2430.000000	86.455	-11.3412
2500.000000	86.864	-13.8815
2580.000000	87.319	-17.0133
2650.000000	87.702	-19.9414
2720.000000	88.068	-23.0311
2800.000000	88.464	-26.7344
2900.000000	88.927	-31.5901
3000.000000	89.357	-36.6652
3070.000000	89.638	-40.3318
3150.000000	89.939	-44.6415
3250.000000	90.290	-50.2144
3350.000000	90.610	-56.0117
3450.000000	90.895	-62.0602
3550.000000	91.135	-68.3756
3650.000000	91.319	-74.9252
3750.000000	91.444	-81.5945
3870.000000	91.539	-89.7986
4000.000000	91.530	-99.2147
4120.000000	91.356	-108.0662
4250.000000	90.995	-117.3595
4370.000000	90.527	-125.4210
4500.000000	89.905	-133.4142
4620.000000	89.257	-140.0044
4750.000000	88.508	-146.2579
4870.000000	87.801	-151.2507
5000.000000	87.044	-155.8751
5150.000000	86.202	-160.3046
5300.000000	85.419	-163.9169
5450.000000	84.708	-166.8595
5600.000000	84.077	-169.2663
5800.000000	83.371	-171.8770
6000.000000	82.820	-174.0571
6150.000000	82.501	-175.5988
6300.000000	82.245	-177.1551
6500.000000	81.961	-179.2137
6700.000000	81.730	179.2724
6900.000000	81.666	178.6408
7100.000000	81.892	178.2561
7300.000000	82.412	177.1454
7500.000000	83.149	174.8038
7750.000000	84.339	169.7759
8000.000000	85.759	161.3054
8250.000000	87.176	148.0234
8500.000000	88.095	129.6379
8750.000000	88.045	109.3655
9000.000000	87.180	92.0636
9250.000000	86.075	79.3787
9500.000000	85.147	70.1187
9750.000000	84.548	62.7491
10000.000000	84.345	56.1413
10300.000000	84.690	47.7661
10600.000000	85.730	36.8947
10900.000000	87.438	20.2760
11200.000000	89.230	-7.4736
11500.000000	89.282	-46.3420
11800.000000	86.940	-79.8356
12200.000000	83.294	-106.8049
12500.000000	81.222	-120.8915
12800.000000	79.746	-133.3984
13200.000000	78.460	-150.6624
13600.000000	77.706	-170.3327
14000.000000	77.171	165.9316
14500.000000	76.199	130.2107
15000.000000	74.344	91.0970
15500.000000	71.959	52.8882
16000.000000	69.653	15.0463
16500.000000	67.878	-24.8873
17000.000000	66.901	-69.7760
17500.000000	66.845	-122.0160
18000.000000	67.621	175.8474
18500.000000	68.753	101.0851
19000.000000	69.404	10.9878
19500.000000	68.457	-96.7511
