* Measurement data measured by REW V5.20
* Source: Headset (USB-C to 3.5mm Headphone Jack Adapter), MICROPHONE (Master Volume), R, volume: 0.260
* Format: 256k Log Swept Sine, 1 sweep at -6.0 dBFS with no timing reference
* Dated: Apr 6, 2021 9:22:34 AM
* REW Settings:
*  C-weighting compensation: Off
*  Target level: 75.0 dB
* Note: ; 
* Measurement: Campfire Dorado 2020R
* Smoothing: 1/48 octave
* Frequency Step: 1/24 octave
* Start Frequency: 20.600 Hz
*
* Freq(Hz)	SPL(dB)	Phase(degrees)
20.600000	92.321388	-134.8885
21.200001	92.421051	-136.1119
21.799999	92.515091	-137.3497
22.400000	92.609024	-138.5591
23.000000	92.702240	-139.7097
23.600000	92.789246	-140.8182
24.299999	92.875793	-142.0741
25.000000	92.952820	-143.2746
25.799999	93.045113	-144.6095
26.500000	93.125496	-145.7719
27.200001	93.195755	-146.8824
28.000000	93.266144	-148.0580
29.000000	93.347412	-149.4813
30.000000	93.418259	-150.8893
30.700001	93.463455	-151.8275
31.500000	93.514771	-152.8609
32.500000	93.574402	-154.1355
33.500000	93.625717	-155.3595
34.500000	93.671021	-156.5315
35.500000	93.709923	-157.6387
36.500000	93.751572	-158.7100
37.500000	93.786453	-159.7790
38.700001	93.820808	-160.9829
40.000000	93.856117	-162.2681
41.200001	93.883080	-163.3954
42.500000	93.903229	-164.5549
43.700001	93.921921	-165.6515
45.000000	93.941666	-166.7430
46.200001	93.963768	-167.6727
47.500000	93.971619	-168.6939
48.700001	93.975891	-169.6270
50.000000	93.981781	-170.5762
51.500000	93.983521	-171.6407
53.000000	93.985085	-172.6811
54.500000	93.980820	-173.6715
56.000000	93.978065	-174.6308
58.000000	93.967400	-175.8792
60.000000	93.965302	-177.0654
61.500000	93.944756	-177.9431
63.000000	93.930878	-178.7798
65.000000	93.909904	-179.8412
67.000000	93.886650	179.1083
69.000000	93.862061	178.1085
71.000000	93.834000	177.1253
73.000000	93.804924	176.1855
75.000000	93.772736	175.2831
77.500000	93.731850	174.1893
80.000000	93.687897	173.1251
82.500000	93.642029	172.1118
85.000000	93.593887	171.1225
87.500000	93.542686	170.1663
90.000000	93.520523	169.3014
92.500000	93.437721	168.3882
95.000000	93.401054	167.4509
97.500000	93.351112	166.5273
100.000000	93.270599	165.8818
103.000000	93.201736	164.9590
106.000000	93.129852	164.0524
109.000000	93.059265	163.2018
112.000000	92.985764	162.3566
115.000000	92.910461	161.5482
118.000000	92.837952	160.7723
122.000000	92.731583	159.7551
125.000000	92.658394	159.0465
128.000000	92.581902	158.3626
132.000000	92.477989	157.4653
136.000000	92.374176	156.6055
140.000000	92.269638	155.7834
145.000000	92.139275	154.8183
150.000000	92.006416	153.8924
155.000000	91.874069	153.0161
160.000000	91.741425	152.1881
165.000000	91.608925	151.3954
170.000000	91.477089	150.6555
175.000000	91.345116	149.9391
180.000000	91.216843	149.2707
185.000000	91.083984	148.6338
190.000000	90.953636	148.0091
195.000000	90.825806	147.4479
200.000000	90.696213	146.9088
206.000000	90.544029	146.2953
212.000000	90.391502	145.7165
218.000000	90.245148	145.1935
224.000000	90.092850	144.6794
230.000000	89.946457	144.2043
236.000000	89.799561	143.7609
243.000000	89.632210	143.2833
250.000000	89.465530	142.8474
258.000000	89.278015	142.3875
265.000000	89.116058	142.0283
272.000000	88.957809	141.6938
280.000000	88.778679	141.3504
290.000000	88.554375	140.9450
300.000000	88.342712	140.6346
307.000000	88.195267	140.4483
315.000000	88.029434	140.2565
325.000000	87.823456	140.0717
335.000000	87.624702	139.9048
345.000000	87.430016	139.7918
355.000000	87.236259	139.7093
365.000000	87.048820	139.6521
375.000000	86.864326	139.6398
387.000000	86.648438	139.6645
400.000000	86.420334	139.7455
412.000000	86.216347	139.8472
425.000000	86.001923	140.0193
437.000000	85.804459	140.1993
450.000000	85.601273	140.4441
462.000000	85.414955	140.7126
475.000000	85.218460	141.0224
487.000000	85.043343	141.3328
500.000000	84.857300	141.6903
515.000000	84.639977	142.1403
530.000000	84.401245	142.7964
545.000000	84.268875	143.6602
560.000000	84.092323	144.0393
580.000000	83.849510	144.8318
600.000000	83.617508	145.7130
615.000000	83.451187	146.4178
630.000000	83.289185	147.1461
650.000000	83.081047	148.1812
670.000000	82.880722	149.2373
690.000000	82.682716	150.3235
710.000000	82.480804	151.4253
730.000000	82.258514	152.5648
750.000000	81.983627	153.8698
775.000000	81.543961	156.7209
800.000000	81.385544	161.9515
825.000000	81.648468	165.5432
850.000000	81.825020	167.4163
875.000000	81.913635	169.2103
900.000000	81.983749	171.1904
925.000000	82.074593	173.2939
950.000000	82.198502	175.5033
975.000000	82.363251	177.7473
1000.000000	82.575706	179.9866
1030.000000	82.894875	-177.4158
1060.000000	83.294662	-175.0018
1090.000000	83.777008	-172.8752
1120.000000	84.344193	-171.2139
1150.000000	84.992813	-170.1883
1180.000000	85.702087	-170.0378
1220.000000	86.679771	-171.5370
1250.000000	87.360527	-174.0724
1280.000000	87.922211	-177.7003
1320.000000	88.394531	176.4171
1360.000000	88.523308	170.4011
1400.000000	88.381111	165.2092
1450.000000	87.996918	160.4327
1500.000000	87.542099	157.4158
1550.000000	87.106194	155.6889
1600.000000	86.723068	154.8134
1650.000000	86.395988	154.5249
1700.000000	86.125473	154.6091
1750.000000	85.902275	154.9436
1800.000000	85.721680	155.4698
1850.000000	85.577621	156.1156
1900.000000	85.465691	156.8428
1950.000000	85.382713	157.6360
2000.000000	85.326553	158.4913
2060.000000	85.293823	159.5609
2120.000000	85.294495	160.6535
2180.000000	85.329330	161.7717
2240.000000	85.396095	162.8731
2300.000000	85.496048	163.9330
2360.000000	85.628120	164.9313
2430.000000	85.820618	165.9537
2500.000000	86.053558	166.7806
2580.000000	86.362556	167.3709
2650.000000	86.662010	167.5062
2720.000000	86.975746	167.1957
2800.000000	87.325974	166.1980
2900.000000	87.693771	163.9484
3000.000000	87.897743	160.7550
3070.000000	87.899261	158.2345
3150.000000	87.743752	155.5011
3250.000000	87.339172	152.9247
3350.000000	86.787567	151.8215
3450.000000	86.203957	152.3380
3550.000000	85.678185	154.3107
3650.000000	85.271210	157.3763
3750.000000	85.009056	161.1296
3870.000000	84.897659	166.1037
4000.000000	85.012947	171.5916
4120.000000	85.318916	176.3779
4250.000000	85.841942	-179.0532
4370.000000	86.482063	-175.6701
4500.000000	87.315887	-173.2501
4620.000000	88.168297	-172.4170
4750.000000	89.228844	-173.4184
4870.000000	90.019501	-177.2584
5000.000000	90.597145	176.8493
5150.000000	90.713104	168.6900
5300.000000	90.215958	161.3934
5450.000000	89.326263	156.6875
5600.000000	88.302406	154.7625
5800.000000	86.988953	155.6249
6000.000000	85.869072	159.1330
6150.000000	85.176674	162.8807
6300.000000	84.611938	167.2586
6500.000000	84.041748	173.7318
6700.000000	83.670059	-179.3267
6900.000000	83.486809	-172.0968
7100.000000	83.498108	-164.7518
7300.000000	83.710396	-157.6396
7500.000000	84.098221	-150.8766
7750.000000	84.855911	-143.0814
8000.000000	85.956841	-136.5692
8250.000000	87.438026	-132.1708
8500.000000	89.321732	-131.5182
8750.000000	91.421112	-137.5374
9000.000000	92.910278	-152.8686
9250.000000	92.653259	-172.2926
9500.000000	91.004669	174.4438
9750.000000	89.137466	168.5862
10000.000000	87.563301	166.7302
10300.000000	86.114281	166.2076
10600.000000	84.977173	165.2714
10900.000000	83.895401	162.8990
11200.000000	82.606689	159.3493
11500.000000	80.966194	156.0089
11800.000000	79.020821	154.3802
12200.000000	76.271469	156.3073
12500.000000	74.385117	159.8682
12800.000000	72.623970	164.5951
13200.000000	70.532532	172.3296
13600.000000	68.790848	-178.9365
14000.000000	67.395073	-169.9093
14500.000000	66.309006	-158.4145
15000.000000	66.009956	-150.1673
15500.000000	66.126709	-146.2398
16000.000000	66.675117	-146.3052
16500.000000	67.853790	-152.7256
17000.000000	69.403999	-170.7849
17500.000000	69.810944	156.1475
18000.000000	67.903290	120.5475
18500.000000	65.263649	91.3464
19000.000000	63.144958	61.9366
19500.000000	61.292107	24.4181
