* Measurement data measured by REW V5.20
* Source: Headset (USB-C to 3.5mm Headphone Jack Adapter), MICROPHONE (Master Volume), R, volume: 0.250
* Format: 512k Log Swept Sine, 1 sweep at 0.0 dBFS with no timing reference
* Dated: May 26, 2022 8:01:52 PM
* REW Settings:
*  C-weighting compensation: Off
*  Target level: 75.0 dB
* Note: ; 
* Measurement: EDX Ultra R
* Smoothing: 1/48 octave
* Frequency Step: 1/24 octave
* Start Frequency: 20.600 Hz
*
* Freq(Hz)	SPL(dB)	Phase(degrees)
20.600000	93.782555	-113.2111
21.200001	93.893539	-115.0331
21.799999	93.998474	-116.8132
22.400000	94.088905	-118.5365
23.000000	94.143097	-120.1953
23.600000	94.182297	-121.8399
24.299999	94.239502	-123.6414
25.000000	94.282021	-125.2919
25.799999	94.310143	-127.1493
26.500000	94.333923	-128.7314
27.200001	94.346375	-130.3323
28.000000	94.352539	-132.0694
29.000000	94.364655	-134.0279
30.000000	94.386566	-135.9362
30.700001	94.384140	-137.2323
31.500000	94.386665	-138.6672
32.500000	94.388527	-140.3183
33.500000	94.376892	-141.9520
34.500000	94.374222	-143.5154
35.500000	94.355965	-145.0358
36.500000	94.341103	-146.4242
37.500000	94.329300	-147.7925
38.700001	94.315491	-149.4156
40.000000	94.278404	-151.0126
41.200001	94.262756	-152.4287
42.500000	94.241005	-153.9211
43.700001	94.204498	-155.2375
45.000000	94.183784	-156.5481
46.200001	94.144989	-157.6758
47.500000	94.090553	-159.0588
48.700001	94.074966	-160.0392
50.000000	94.032257	-161.2838
51.500000	93.981834	-162.5501
53.000000	93.935944	-163.7725
54.500000	93.887383	-164.9012
56.000000	93.838974	-165.9432
58.000000	93.770920	-167.4318
60.000000	93.699776	-168.6886
61.500000	93.656013	-169.6149
63.000000	93.605446	-170.5655
65.000000	93.537239	-171.6749
67.000000	93.457237	-172.7370
69.000000	93.390633	-173.8059
71.000000	93.315331	-174.7387
73.000000	93.243393	-175.6864
75.000000	93.167282	-176.5734
77.500000	93.070877	-177.6039
80.000000	92.979141	-178.5693
82.500000	92.877243	-179.4833
85.000000	92.776039	179.6304
87.500000	92.673584	178.7979
90.000000	92.599640	178.1406
92.500000	92.484756	177.3781
95.000000	92.388351	176.7134
97.500000	92.288689	176.0759
100.000000	92.195717	175.4339
103.000000	92.088097	174.8263
106.000000	91.978386	174.2187
109.000000	91.867737	173.6773
112.000000	91.769333	173.1264
115.000000	91.664009	172.6404
118.000000	91.563072	172.2178
122.000000	91.425575	171.6872
125.000000	91.326965	171.3315
128.000000	91.226692	170.9946
132.000000	91.095810	170.6270
136.000000	90.966087	170.2938
140.000000	90.835327	170.0157
145.000000	90.678787	169.7111
150.000000	90.530403	169.4741
155.000000	90.375267	169.2889
160.000000	90.220428	169.1877
165.000000	90.074051	169.1194
170.000000	89.928894	169.0853
175.000000	89.793289	169.1143
180.000000	89.655167	169.1607
185.000000	89.521179	169.2710
190.000000	89.387993	169.3965
195.000000	89.258636	169.5653
200.000000	89.133354	169.7484
206.000000	88.986053	170.0225
212.000000	88.840622	170.3168
218.000000	88.700508	170.6532
224.000000	88.564178	171.0178
230.000000	88.431412	171.4131
236.000000	88.302902	171.8376
243.000000	88.157333	172.3530
250.000000	88.016541	172.9233
258.000000	87.862015	173.5898
265.000000	87.729958	174.2178
272.000000	87.603714	174.8446
280.000000	87.461716	175.5806
290.000000	87.291634	176.5482
300.000000	87.135338	177.5690
307.000000	87.024612	178.2876
315.000000	86.904366	179.1347
325.000000	86.766289	-179.8034
335.000000	86.627289	-178.6868
345.000000	86.496574	-177.5781
355.000000	86.371910	-176.4299
365.000000	86.253990	-175.2673
375.000000	86.140442	-174.0892
387.000000	86.011520	-172.6720
400.000000	85.879700	-171.1167
412.000000	85.765869	-169.6572
425.000000	85.649002	-168.0700
437.000000	85.547783	-166.5853
450.000000	85.444458	-164.9820
462.000000	85.355553	-163.4728
475.000000	85.264702	-161.8341
487.000000	85.186325	-160.3341
500.000000	85.107460	-158.6830
515.000000	85.020874	-156.7698
530.000000	84.944450	-154.8435
545.000000	84.873428	-152.9185
560.000000	84.809532	-150.9881
580.000000	84.734306	-148.3969
600.000000	84.669762	-145.7939
615.000000	84.630035	-143.8297
630.000000	84.595299	-141.8649
650.000000	84.560410	-139.2366
670.000000	84.537048	-136.6020
690.000000	84.521927	-133.9541
710.000000	84.521606	-131.3140
730.000000	84.533142	-128.6627
750.000000	84.558228	-126.0278
775.000000	84.606712	-122.7660
800.000000	84.666306	-119.6219
825.000000	84.705070	-116.3320
850.000000	84.806290	-112.8076
875.000000	84.961914	-109.4873
900.000000	85.134460	-106.4270
925.000000	85.311188	-103.4937
950.000000	85.499107	-100.6444
975.000000	85.700851	-97.8995
1000.000000	85.913841	-95.2813
1030.000000	86.182587	-92.3233
1060.000000	86.458412	-89.5662
1090.000000	86.737610	-87.0078
1120.000000	87.013649	-84.6417
1150.000000	87.284592	-82.4442
1180.000000	87.545700	-80.3901
1220.000000	87.876877	-77.8437
1250.000000	88.111656	-76.0439
1280.000000	88.335571	-74.3195
1320.000000	88.616638	-72.1044
1360.000000	88.882225	-69.9599
1400.000000	89.135269	-67.8682
1450.000000	89.437057	-65.3190
1500.000000	89.727684	-62.8445
1550.000000	90.009979	-60.4381
1600.000000	90.286293	-58.1220
1650.000000	90.556419	-55.9063
1700.000000	90.819748	-53.8039
1750.000000	91.075180	-51.8263
1800.000000	91.319962	-49.9755
1850.000000	91.550934	-48.2581
1900.000000	91.766159	-46.6646
1950.000000	91.960876	-45.1963
2000.000000	92.132957	-43.8331
2060.000000	92.306236	-42.3018
2120.000000	92.439079	-40.8544
2180.000000	92.530128	-39.4365
2240.000000	92.580002	-37.9942
2300.000000	92.591858	-36.4794
2360.000000	92.569275	-34.8459
2430.000000	92.506325	-32.7543
2500.000000	92.414604	-30.4300
2580.000000	92.286110	-27.4640
2650.000000	92.164490	-24.6012
2720.000000	92.042480	-21.5089
2800.000000	91.910858	-17.7222
2900.000000	91.769814	-12.6765
3000.000000	91.664055	-7.3734
3070.000000	91.615135	-3.5570
3150.000000	91.585220	0.8592
3250.000000	91.588303	6.4042
3350.000000	91.635452	11.8967
3450.000000	91.724098	17.2603
3550.000000	91.850281	22.4132
3650.000000	92.000687	27.2599
3750.000000	92.172699	31.9114
3870.000000	92.411797	36.8762
4000.000000	92.660027	41.4677
4120.000000	92.848946	44.9385
4250.000000	92.963593	47.8826
4370.000000	92.941658	49.9747
4500.000000	92.737747	51.8679
4620.000000	92.366379	53.6483
4750.000000	91.776321	56.0708
4870.000000	91.092094	59.0685
5000.000000	90.250694	63.3278
5150.000000	89.215729	69.5945
5300.000000	88.168579	77.2040
5450.000000	87.142555	86.0101
5600.000000	86.150703	96.3704
5800.000000	85.223885	110.2386
6000.000000	84.193718	125.0609
6150.000000	83.539993	136.9463
6300.000000	82.977882	149.2382
6500.000000	82.365585	166.1443
6700.000000	81.909714	-176.4304
6900.000000	81.617317	-158.4994
7100.000000	81.517471	-140.0283
7300.000000	81.660095	-121.1921
7500.000000	82.065186	-102.0617
7750.000000	83.119301	-77.8577
8000.000000	85.041275	-55.3617
8250.000000	87.789818	-38.9910
8500.000000	90.503265	-32.6165
8750.000000	92.144127	-32.3421
9000.000000	92.960220	-31.3062
9250.000000	93.523056	-29.6983
9500.000000	93.747864	-28.5379
9750.000000	93.565048	-26.7963
10000.000000	93.075958	-22.9925
10300.000000	92.460678	-14.9559
10600.000000	92.197334	-4.2712
10900.000000	92.557083	7.0146
11200.000000	93.694412	15.3057
11500.000000	95.321762	15.7570
11800.000000	96.256897	3.5911
12200.000000	93.705238	-15.4436
12500.000000	90.487686	-15.8286
12800.000000	87.717834	-8.3249
13200.000000	85.063965	6.5157
13600.000000	83.508698	21.7574
14000.000000	82.706886	34.3394
14500.000000	82.551407	44.5354
15000.000000	82.913002	43.3956
15500.000000	82.181427	29.1107
16000.000000	79.204727	12.2800
16500.000000	74.676544	26.4073
17000.000000	75.409363	16.7264
17500.000000	73.785522	4.3014
18000.000000	72.759201	-10.3871
18500.000000	72.388374	-34.4260
19000.000000	72.243050	-74.3478
19500.000000	71.272942	-135.7992
