* Measurement data measured by REW V5.20
* Source: Headset (USB-C to 3.5mm Headphone Jack Adapter), MICROPHONE (Master Volume), R, volume: 0.250
* Format: 512k Log Swept Sine, 1 sweep at 0.0 dBFS with no timing reference
* Dated: May 26, 2022 8:00:48 PM
* REW Settings:
*  C-weighting compensation: Off
*  Target level: 75.0 dB
* Note: ; 
* Measurement: EDX Ultra L
* Smoothing: 1/48 octave
* Frequency Step: 1/24 octave
* Start Frequency: 20.600 Hz
*
* Freq(Hz)	SPL(dB)	Phase(degrees)
20.600000	93.626808	-112.2352
21.200001	93.746552	-114.1525
21.799999	93.850883	-115.9578
22.400000	93.936653	-117.6863
23.000000	94.002647	-119.3699
23.600000	94.055801	-121.0136
24.299999	94.106155	-122.8938
25.000000	94.148865	-124.6979
25.799999	94.188362	-126.6052
26.500000	94.219704	-128.2648
27.200001	94.249191	-129.8916
28.000000	94.259575	-131.6163
29.000000	94.273216	-133.7143
30.000000	94.290886	-135.6970
30.700001	94.289574	-137.0289
31.500000	94.296227	-138.5129
32.500000	94.303345	-140.2857
33.500000	94.304337	-141.9924
34.500000	94.305199	-143.6411
35.500000	94.300148	-145.1956
36.500000	94.287163	-146.6834
37.500000	94.282089	-148.0616
38.700001	94.262520	-149.6919
40.000000	94.242500	-151.4647
41.200001	94.227058	-152.9609
42.500000	94.207390	-154.4901
43.700001	94.171654	-155.8518
45.000000	94.132027	-157.4002
46.200001	94.119568	-158.6606
47.500000	94.081184	-159.9725
48.700001	94.049431	-161.0924
50.000000	94.017197	-162.3379
51.500000	93.965614	-163.6821
53.000000	93.926498	-165.0006
54.500000	93.880585	-166.2451
56.000000	93.832176	-167.4160
58.000000	93.768913	-168.9465
60.000000	93.721428	-170.3695
61.500000	93.656502	-171.3817
63.000000	93.607834	-172.3896
65.000000	93.546951	-173.6446
67.000000	93.478783	-174.8387
69.000000	93.408501	-175.9380
71.000000	93.336731	-177.0868
73.000000	93.262985	-178.1003
75.000000	93.189407	-179.0885
77.500000	93.095512	179.7115
80.000000	93.002228	178.6185
82.500000	92.906296	177.5577
85.000000	92.811043	176.5760
87.500000	92.713455	175.6202
90.000000	92.618423	174.7947
92.500000	92.524414	173.8831
95.000000	92.431976	173.0885
97.500000	92.336937	172.3476
100.000000	92.248322	171.6511
103.000000	92.136925	170.7927
106.000000	92.028625	170.0289
109.000000	91.927101	169.3077
112.000000	91.824921	168.6235
115.000000	91.722527	167.9717
118.000000	91.621063	167.3860
122.000000	91.490494	166.6589
125.000000	91.391006	166.1414
128.000000	91.292435	165.6592
132.000000	91.165451	165.0574
136.000000	91.036987	164.5319
140.000000	90.911224	164.0316
145.000000	90.754997	163.4769
150.000000	90.599838	163.0023
155.000000	90.455544	162.5365
160.000000	90.307739	162.1640
165.000000	90.162048	161.8460
170.000000	90.021408	161.5684
175.000000	89.882584	161.3268
180.000000	89.747177	161.1118
185.000000	89.614426	160.9586
190.000000	89.485153	160.8355
195.000000	89.357964	160.7317
200.000000	89.233871	160.6694
206.000000	89.089638	160.6273
212.000000	88.947060	160.6182
218.000000	88.808647	160.6463
224.000000	88.675110	160.7175
230.000000	88.544746	160.7953
236.000000	88.418510	160.9102
243.000000	88.275986	161.0667
250.000000	88.137314	161.2553
258.000000	87.983795	161.5175
265.000000	87.855072	161.7734
272.000000	87.732628	162.0412
280.000000	87.593918	162.3788
290.000000	87.429413	162.8348
300.000000	87.271744	163.3254
307.000000	87.167542	163.6884
315.000000	87.052307	164.1170
325.000000	86.912491	164.6809
335.000000	86.780693	165.2617
345.000000	86.654495	165.8669
355.000000	86.534492	166.4846
365.000000	86.418259	167.1145
375.000000	86.309982	167.7634
387.000000	86.185226	168.5614
400.000000	86.059006	169.4410
412.000000	85.949623	170.2634
425.000000	85.836853	171.1682
437.000000	85.740250	172.0146
450.000000	85.640854	172.9363
462.000000	85.556046	173.8036
475.000000	85.468597	174.7378
487.000000	85.394371	175.6087
500.000000	85.318954	176.5656
515.000000	85.238731	177.6737
530.000000	85.164154	178.7849
545.000000	85.097031	179.9031
560.000000	85.035431	-178.9774
580.000000	84.963661	-177.4684
600.000000	84.903008	-175.9589
615.000000	84.863190	-174.8249
630.000000	84.829056	-173.6800
650.000000	84.792526	-172.1489
670.000000	84.766495	-170.6121
690.000000	84.750465	-169.0675
710.000000	84.743843	-167.5209
730.000000	84.748398	-165.9646
750.000000	84.762535	-164.4113
775.000000	84.796455	-162.4727
800.000000	84.847908	-160.5316
825.000000	84.915512	-158.6112
850.000000	84.997925	-156.6470
875.000000	85.135483	-154.6012
900.000000	85.313751	-153.0103
925.000000	85.461815	-151.6761
950.000000	85.583611	-150.3248
975.000000	85.706558	-148.7807
1000.000000	85.870598	-147.1716
1030.000000	86.109032	-145.4224
1060.000000	86.371490	-143.9294
1090.000000	86.642319	-142.6845
1120.000000	86.915428	-141.6546
1150.000000	87.185440	-140.8143
1180.000000	87.448029	-140.1403
1220.000000	87.785103	-139.4536
1250.000000	88.025429	-139.0707
1280.000000	88.256424	-138.7743
1320.000000	88.547684	-138.4889
1360.000000	88.824203	-138.3024
1400.000000	89.087059	-138.1875
1450.000000	89.400482	-138.1325
1500.000000	89.701103	-138.1734
1550.000000	89.991783	-138.3057
1600.000000	90.273567	-138.5353
1650.000000	90.546509	-138.8837
1700.000000	90.810287	-139.3445
1750.000000	91.063248	-139.9331
1800.000000	91.302536	-140.6485
1850.000000	91.525711	-141.4904
1900.000000	91.729958	-142.4521
1950.000000	91.912354	-143.5242
2000.000000	92.069931	-144.6821
2060.000000	92.223152	-146.1602
2120.000000	92.334953	-147.6851
2180.000000	92.405128	-149.2069
2240.000000	92.434845	-150.6761
2300.000000	92.428230	-152.0413
2360.000000	92.389412	-153.2722
2430.000000	92.311722	-154.4897
2500.000000	92.209244	-155.4508
2580.000000	92.074966	-156.2241
2650.000000	91.952087	-156.6300
2720.000000	91.833389	-156.7976
2800.000000	91.710670	-156.7364
2900.000000	91.586006	-156.3504
3000.000000	91.503357	-155.7132
3070.000000	91.473114	-155.1659
3150.000000	91.468491	-154.4861
3250.000000	91.508087	-153.6196
3350.000000	91.597824	-152.8133
3450.000000	91.734993	-152.1390
3550.000000	91.917038	-151.6820
3650.000000	92.138649	-151.5118
3750.000000	92.393471	-151.7069
3870.000000	92.729446	-152.5396
4000.000000	93.104607	-154.3289
4120.000000	93.424583	-156.9248
4250.000000	93.686089	-160.8241
4370.000000	93.782867	-165.3532
4500.000000	93.641815	-170.7319
4620.000000	93.348190	-175.5851
4750.000000	92.783798	179.3404
4870.000000	92.077179	175.5766
5000.000000	91.188065	172.7386
5150.000000	90.091537	171.0879
5300.000000	88.994064	170.9586
5450.000000	87.926994	172.0913
5600.000000	86.883018	174.3444
5800.000000	85.806152	-178.4595
6000.000000	85.104568	-175.3787
6150.000000	84.455551	-171.3569
6300.000000	83.922295	-166.7543
6500.000000	83.370346	-160.1062
6700.000000	82.994781	-153.0461
6900.000000	82.800095	-145.6454
7100.000000	82.809998	-137.9487
7300.000000	83.070740	-130.2252
7500.000000	83.593117	-122.7011
7750.000000	84.732605	-114.0944
8000.000000	86.511696	-108.5212
8250.000000	88.600533	-109.6111
8500.000000	90.073151	-117.0857
8750.000000	90.759537	-124.5088
9000.000000	91.389610	-130.4190
9250.000000	92.023415	-137.9316
9500.000000	92.369446	-147.0278
9750.000000	92.295364	-156.2416
10000.000000	91.914993	-163.7040
10300.000000	91.451485	-169.5875
10600.000000	91.376526	-173.4175
10900.000000	91.908157	-177.7487
11200.000000	93.109352	173.7418
11500.000000	94.380630	155.7205
11800.000000	94.203033	128.5828
12200.000000	91.026436	99.9996
12500.000000	88.300674	89.8341
12800.000000	86.109909	84.4392
13200.000000	84.053284	79.7563
13600.000000	82.883392	74.8002
14000.000000	82.514206	67.0693
14500.000000	83.018036	48.7512
15000.000000	83.371048	10.7567
15500.000000	77.779816	-36.1733
16000.000000	78.133286	-29.1270
16500.000000	75.997429	-67.8947
17000.000000	74.286026	-91.8337
17500.000000	74.602173	-126.0558
18000.000000	74.615334	-172.8831
18500.000000	74.576279	128.1904
19000.000000	73.756241	51.5369
19500.000000	71.010994	-41.4705
