* Measurement data measured by REW V5.20.13
* Source: Headset (USB-C to 3.5mm Headphone Jack Adapter), MICROPHONE (Master Volume), R, volume: 0.630. Timing signal peak level -19.6 dBFS, measurement signal peak level -16.8 dBFS
* Format: 512k Log Swept Sine, 1 sweep at -3.0 dBFS using an acoustic timing reference
* Dated: Dec 29, 2023 9:24:26 PM
* REW Settings:
*  C-weighting compensation: Off
*  Target level: 75.0 dB
* Note: ; Delay -0.0276 ms (-9.5 mm, -0.37 in) using estimated IR delay relative to Acoustic reference played from  L with no timing offset
* Measurement: EM6L L
* Smoothing: 1/48 octave
* Frequency Step: 1/24 octave
* Start Frequency: 20.600 Hz
*
* Freq(Hz)	SPL(dB)	Phase(degrees)
20.600000	100.413	-153.8681
21.200001	100.412	-155.2204
21.799999	100.420	-156.4876
22.400000	100.415	-157.6629
23.000000	100.384	-158.7906
23.600000	100.339	-159.8626
24.299999	100.279	-161.0453
25.000000	100.216	-162.2291
25.799999	100.166	-163.5541
26.500000	100.138	-164.6039
27.200001	100.084	-165.6054
28.000000	99.984	-166.7217
29.000000	99.872	-167.9687
30.000000	99.803	-169.2066
30.700001	99.746	-170.1215
31.500000	99.666	-171.0971
32.500000	99.581	-172.2213
33.500000	99.501	-173.3944
34.500000	99.413	-174.4331
35.500000	99.341	-175.4162
36.500000	99.264	-176.3284
37.500000	99.185	-177.2030
38.700001	99.103	-178.3437
40.000000	99.004	-179.5609
41.200001	98.886	179.5512
42.500000	98.796	178.4633
43.700001	98.745	177.6160
45.000000	98.637	176.7582
46.200001	98.566	176.0402
47.500000	98.459	175.1392
48.700001	98.386	174.3546
50.000000	98.295	173.6337
51.500000	98.194	172.7816
53.000000	98.097	171.9532
54.500000	98.008	171.2402
56.000000	97.912	170.4686
58.000000	97.787	169.4529
60.000000	97.662	168.8568
61.500000	97.568	168.0109
63.000000	97.492	167.3999
65.000000	97.370	166.7284
67.000000	97.259	166.0016
69.000000	97.143	165.3699
71.000000	97.029	164.6732
73.000000	96.918	164.0907
75.000000	96.812	163.5219
77.500000	96.673	162.8912
80.000000	96.538	162.2908
82.500000	96.400	161.6982
85.000000	96.275	161.1714
87.500000	96.150	160.6881
90.000000	96.025	160.2382
92.500000	95.906	159.8306
95.000000	95.787	159.4205
97.500000	95.674	159.0558
100.000000	95.563	158.7257
103.000000	95.432	158.4219
106.000000	95.308	158.0427
109.000000	95.188	157.7365
112.000000	95.070	157.4560
115.000000	94.955	157.2180
118.000000	94.844	156.9744
122.000000	94.700	156.7335
125.000000	94.593	156.5651
128.000000	94.492	156.4077
132.000000	94.358	156.2389
136.000000	94.227	156.1059
140.000000	94.102	155.9857
145.000000	93.948	155.8988
150.000000	93.803	155.8274
155.000000	93.658	155.7922
160.000000	93.522	155.7885
165.000000	93.389	155.8146
170.000000	93.261	155.8509
175.000000	93.136	155.9196
180.000000	93.013	156.0640
185.000000	92.898	156.1124
190.000000	92.786	156.2244
195.000000	92.678	156.3533
200.000000	92.572	156.4995
206.000000	92.449	156.6895
212.000000	92.334	156.8950
218.000000	92.218	157.1215
224.000000	92.108	157.3344
230.000000	92.004	157.5933
236.000000	91.903	157.8378
243.000000	91.788	158.1468
250.000000	91.677	158.4423
258.000000	91.557	158.8147
265.000000	91.457	159.1409
272.000000	91.359	159.4747
280.000000	91.254	159.8682
290.000000	91.127	160.3536
300.000000	91.011	160.8280
307.000000	90.925	161.2139
315.000000	90.836	161.6201
325.000000	90.729	162.1314
335.000000	90.628	162.6550
345.000000	90.532	163.1663
355.000000	90.439	163.6904
365.000000	90.350	164.2149
375.000000	90.267	164.7349
387.000000	90.171	165.3691
400.000000	90.071	166.0494
412.000000	89.984	166.6810
425.000000	89.895	167.3697
437.000000	89.815	168.0067
450.000000	89.736	168.6895
462.000000	89.665	169.3276
475.000000	89.591	170.0176
487.000000	89.527	170.6565
500.000000	89.459	171.3457
515.000000	89.387	172.1514
530.000000	89.319	172.9519
545.000000	89.255	173.7543
560.000000	89.196	174.5771
580.000000	89.120	175.6662
600.000000	89.052	176.7665
615.000000	89.006	177.6007
630.000000	88.963	178.4325
650.000000	88.913	179.5719
670.000000	88.868	-179.2900
690.000000	88.831	-178.1253
710.000000	88.801	-176.9480
730.000000	88.780	-175.7469
750.000000	88.768	-174.5397
775.000000	88.766	-173.0015
800.000000	88.780	-171.4779
825.000000	88.813	-169.9343
850.000000	88.862	-168.4024
875.000000	88.929	-166.8988
900.000000	89.017	-165.4474
925.000000	89.121	-164.0327
950.000000	89.244	-162.7071
975.000000	89.381	-161.4778
1000.000000	89.533	-160.3563
1030.000000	89.729	-159.1727
1060.000000	89.932	-158.1857
1090.000000	90.140	-157.3711
1120.000000	90.345	-156.7401
1150.000000	90.544	-156.2689
1180.000000	90.732	-155.9214
1220.000000	90.962	-155.6235
1250.000000	91.119	-155.4778
1280.000000	91.262	-155.3702
1320.000000	91.436	-155.2617
1360.000000	91.592	-155.1577
1400.000000	91.735	-155.0252
1450.000000	91.901	-154.8232
1500.000000	92.061	-154.5558
1550.000000	92.220	-154.2403
1600.000000	92.384	-153.8789
1650.000000	92.555	-153.4940
1700.000000	92.734	-153.1010
1750.000000	92.924	-152.7200
1800.000000	93.126	-152.3572
1850.000000	93.337	-152.0419
1900.000000	93.556	-151.7855
1950.000000	93.782	-151.5843
2000.000000	94.014	-151.4435
2060.000000	94.299	-151.3284
2120.000000	94.594	-151.2911
2180.000000	94.899	-151.3369
2240.000000	95.215	-151.4746
2300.000000	95.544	-151.7212
2360.000000	95.882	-152.0999
2430.000000	96.286	-152.7351
2500.000000	96.698	-153.5944
2580.000000	97.172	-154.8766
2650.000000	97.581	-156.2706
2720.000000	97.981	-157.9314
2800.000000	98.414	-160.1428
2900.000000	98.909	-163.3469
3000.000000	99.334	-166.9729
3070.000000	99.581	-169.6973
3150.000000	99.809	-172.9438
3250.000000	100.007	-177.0885
3350.000000	100.112	178.8118
3450.000000	100.130	174.8634
3550.000000	100.074	171.1331
3650.000000	99.952	167.6618
3750.000000	99.769	164.5088
3870.000000	99.487	161.2233
4000.000000	99.124	158.3403
4120.000000	98.757	156.3520
4250.000000	98.350	154.9665
4370.000000	97.991	154.4097
4500.000000	97.654	154.5082
4620.000000	97.416	155.1038
4750.000000	97.251	156.0311
4870.000000	97.178	156.9135
5000.000000	97.163	157.7180
5150.000000	97.193	158.3378
5300.000000	97.239	158.6474
5450.000000	97.288	158.6688
5600.000000	97.320	158.3381
5800.000000	97.270	157.3611
6000.000000	97.042	156.2408
6150.000000	96.748	155.7175
6300.000000	96.369	155.7279
6500.000000	95.784	156.8038
6700.000000	95.178	159.1705
6900.000000	94.613	162.7180
7100.000000	94.147	167.2639
7300.000000	93.827	172.2151
7500.000000	93.626	177.0394
7750.000000	93.249	-176.2503
8000.000000	93.318	-169.0378
8250.000000	93.515	-163.0645
8500.000000	93.809	-158.1663
8750.000000	94.154	-154.3536
9000.000000	94.501	-151.7020
9250.000000	94.796	-150.0345
9500.000000	95.023	-148.9626
9750.000000	95.211	-148.1996
10000.000000	95.403	-147.6786
10300.000000	95.712	-147.5847
10600.000000	96.134	-149.0305
10900.000000	96.535	-153.1349
11200.000000	96.618	-160.2497
11500.000000	96.083	-168.7565
11800.000000	94.932	-175.8960
12200.000000	92.960	179.4040
12500.000000	91.603	178.1118
12800.000000	90.329	177.2102
13200.000000	88.736	175.5120
13600.000000	87.098	172.7693
14000.000000	85.435	169.0995
14500.000000	83.363	163.5747
15000.000000	81.664	157.0569
15500.000000	80.615	148.0542
16000.000000	80.096	135.3526
16500.000000	79.870	119.4995
17000.000000	79.836	100.1266
17500.000000	79.678	75.7545
18000.000000	79.137	46.5571
18500.000000	78.266	10.8188
19000.000000	76.276	-32.5167
19500.000000	77.633	-65.0400
