* Measurement data measured by REW V5.20.13
* Source: Headset (USB-C to 3.5mm Headphone Jack Adapter), MICROPHONE (Master Volume), R, volume: 0.630. Timing signal peak level -50.1 dBFS, measurement signal peak level -17.2 dBFS
* Format: 512k Log Swept Sine, 1 sweep at -3.0 dBFS using an acoustic timing reference
* Dated: Dec 29, 2023 9:25:14 PM
* REW Settings:
*  C-weighting compensation: Off
*  Target level: 75.0 dB
* Note: ; Delay -0.0050 ms (-1.7 mm, -0.07 in) using estimated IR delay relative to Acoustic reference played from  L with no timing offset Clock adjustment: -0.2 ppm
* Measurement: EM6L R
* Smoothing: 1/48 octave
* Frequency Step: 1/24 octave
* Start Frequency: 20.600 Hz
*
* Freq(Hz)	SPL(dB)	Phase(degrees)
20.600000	100.927	-156.5337
21.200001	100.925	-157.7145
21.799999	100.904	-158.8300
22.400000	100.871	-160.0299
23.000000	100.837	-161.2599
23.600000	100.801	-162.3337
24.299999	100.741	-163.4406
25.000000	100.669	-164.6225
25.799999	100.605	-165.9233
26.500000	100.542	-166.8349
27.200001	100.458	-167.7560
28.000000	100.375	-168.9448
29.000000	100.303	-170.2765
30.000000	100.207	-171.5897
30.700001	100.136	-172.5076
31.500000	100.061	-173.3909
32.500000	99.970	-174.4905
33.500000	99.878	-175.6489
34.500000	99.795	-176.6260
35.500000	99.709	-177.5972
36.500000	99.620	-178.5879
37.500000	99.542	-179.4459
38.700001	99.441	179.5502
40.000000	99.341	178.3382
41.200001	99.234	177.4573
42.500000	99.136	176.4423
43.700001	99.048	175.5755
45.000000	98.957	174.7470
46.200001	98.860	173.9016
47.500000	98.782	173.0917
48.700001	98.699	172.3216
50.000000	98.601	171.5889
51.500000	98.496	170.7792
53.000000	98.396	169.9467
54.500000	98.290	169.2165
56.000000	98.200	168.4813
58.000000	98.052	167.5873
60.000000	97.957	166.5822
61.500000	97.838	166.1259
63.000000	97.758	165.5217
65.000000	97.635	164.7497
67.000000	97.510	164.0759
69.000000	97.387	163.4633
71.000000	97.277	162.8097
73.000000	97.156	162.2589
75.000000	97.045	161.6846
77.500000	96.904	161.0533
80.000000	96.769	160.4574
82.500000	96.642	159.8668
85.000000	96.497	159.3729
87.500000	96.368	158.8924
90.000000	96.240	158.4396
92.500000	96.114	158.0586
95.000000	95.996	157.6566
97.500000	95.881	157.3137
100.000000	95.766	157.0014
103.000000	95.624	156.6924
106.000000	95.504	156.3128
109.000000	95.385	156.0133
112.000000	95.263	155.7513
115.000000	95.148	155.4758
118.000000	95.030	155.2659
122.000000	94.888	155.0191
125.000000	94.782	154.8489
128.000000	94.681	154.6866
132.000000	94.541	154.5277
136.000000	94.405	154.3522
140.000000	94.277	154.2519
145.000000	94.122	154.1312
150.000000	93.976	154.0342
155.000000	93.837	154.0574
160.000000	93.701	154.0028
165.000000	93.566	154.0253
170.000000	93.437	154.0406
175.000000	93.313	154.0915
180.000000	93.199	154.2098
185.000000	93.076	154.2396
190.000000	92.963	154.3463
195.000000	92.854	154.4450
200.000000	92.750	154.5766
206.000000	92.628	154.7448
212.000000	92.511	154.9113
218.000000	92.397	155.1044
224.000000	92.289	155.3027
230.000000	92.184	155.5092
236.000000	92.082	155.7274
243.000000	91.968	155.9818
250.000000	91.859	156.2603
258.000000	91.741	156.5877
265.000000	91.640	156.8572
272.000000	91.545	157.1541
280.000000	91.438	157.4781
290.000000	91.312	157.9150
300.000000	91.201	158.3510
307.000000	91.113	158.6443
315.000000	91.025	158.9955
325.000000	90.919	159.4389
335.000000	90.818	159.8828
345.000000	90.723	160.3254
355.000000	90.632	160.7741
365.000000	90.544	161.2216
375.000000	90.462	161.6709
387.000000	90.365	162.2036
400.000000	90.266	162.7946
412.000000	90.181	163.3284
425.000000	90.093	163.9210
437.000000	90.014	164.4545
450.000000	89.934	165.0421
462.000000	89.863	165.5703
475.000000	89.791	166.1557
487.000000	89.727	166.6981
500.000000	89.661	167.2776
515.000000	89.588	167.9611
530.000000	89.520	168.6287
545.000000	89.455	169.3074
560.000000	89.396	169.9909
580.000000	89.319	170.9092
600.000000	89.251	171.8376
615.000000	89.201	172.5340
630.000000	89.155	173.2479
650.000000	89.100	174.2103
670.000000	89.051	175.2054
690.000000	89.010	176.2285
710.000000	88.979	177.2758
730.000000	88.958	178.3231
750.000000	88.947	179.3928
775.000000	88.945	-179.2665
800.000000	88.963	-177.9215
825.000000	88.995	-176.5868
850.000000	89.045	-175.2592
875.000000	89.113	-173.9601
900.000000	89.198	-172.7005
925.000000	89.304	-171.4965
950.000000	89.426	-170.3674
975.000000	89.563	-169.3296
1000.000000	89.714	-168.4053
1030.000000	89.909	-167.4516
1060.000000	90.113	-166.6913
1090.000000	90.320	-166.1062
1120.000000	90.525	-165.7016
1150.000000	90.724	-165.4533
1180.000000	90.914	-165.3320
1220.000000	91.144	-165.3324
1250.000000	91.301	-165.4073
1280.000000	91.446	-165.5255
1320.000000	91.621	-165.7138
1360.000000	91.779	-165.8971
1400.000000	91.924	-166.0617
1450.000000	92.094	-166.2086
1500.000000	92.258	-166.3008
1550.000000	92.423	-166.3274
1600.000000	92.593	-166.3150
1650.000000	92.771	-166.2730
1700.000000	92.959	-166.2243
1750.000000	93.159	-166.1978
1800.000000	93.370	-166.1923
1850.000000	93.592	-166.2371
1900.000000	93.823	-166.3403
1950.000000	94.062	-166.5057
2000.000000	94.308	-166.7335
2060.000000	94.611	-167.0907
2120.000000	94.925	-167.5502
2180.000000	95.249	-168.1067
2240.000000	95.585	-168.7874
2300.000000	95.929	-169.6076
2360.000000	96.280	-170.5889
2430.000000	96.695	-171.9567
2500.000000	97.109	-173.5889
2580.000000	97.572	-175.7894
2650.000000	97.960	-178.0061
2720.000000	98.323	179.5184
2800.000000	98.698	176.4097
2900.000000	99.091	172.1926
3000.000000	99.390	167.7493
3070.000000	99.541	164.5956
3150.000000	99.657	161.0266
3250.000000	99.724	156.7180
3350.000000	99.719	152.6843
3450.000000	99.660	149.0029
3550.000000	99.571	145.6830
3650.000000	99.464	142.6700
3750.000000	99.346	139.9321
3870.000000	99.197	136.9734
4000.000000	99.035	134.1053
4120.000000	98.887	131.7137
4250.000000	98.725	129.3637
4370.000000	98.572	127.4301
4500.000000	98.406	125.6596
4620.000000	98.270	124.3571
4750.000000	98.167	123.2223
4870.000000	98.125	122.2534
5000.000000	98.127	121.0842
5150.000000	98.161	119.4090
5300.000000	98.189	117.3308
5450.000000	98.173	114.8906
5600.000000	98.083	112.2415
5800.000000	97.820	108.7599
6000.000000	97.399	105.8126
6150.000000	97.002	104.1893
6300.000000	96.562	103.1825
6500.000000	95.951	102.8054
6700.000000	95.351	103.4333
6900.000000	94.791	104.9349
7100.000000	94.299	107.2029
7300.000000	93.900	109.8098
7500.000000	93.600	112.9259
7750.000000	93.087	116.7389
8000.000000	92.982	121.6890
8250.000000	93.018	125.7076
8500.000000	93.190	128.9626
8750.000000	93.462	131.0038
9000.000000	93.752	131.6177
9250.000000	93.973	130.9796
9500.000000	94.079	129.6234
9750.000000	94.097	128.0762
10000.000000	94.077	126.5483
10300.000000	94.114	124.7977
10600.000000	94.293	122.1533
10900.000000	94.521	117.4056
11200.000000	94.538	109.9373
11500.000000	94.026	100.9909
11800.000000	92.937	92.9408
12200.000000	90.965	86.7679
12500.000000	89.488	85.3480
12800.000000	88.187	85.5145
13200.000000	86.803	86.4606
13600.000000	85.843	86.5370
14000.000000	85.278	83.7405
14500.000000	84.895	73.8686
15000.000000	84.470	56.6893
15500.000000	83.844	34.1799
16000.000000	83.074	9.5215
16500.000000	82.371	-15.9378
17000.000000	81.784	-42.7573
17500.000000	81.202	-72.4670
18000.000000	80.340	-107.6883
18500.000000	79.502	-145.0916
19000.000000	78.090	155.4690
19500.000000	74.422	87.8756
