* Measurement data measured by REW V5.19
* Source: Microphone (3- USB Sound Device        ), no input selected, R, volume: no control
* Format: 1M Log Swept Sine, 1 sweep at -20.0 dBFS  With no timing reference
* Dated: Jun 2, 2019 3:20:00 PM
* REW Settings:
*  C-weighting compensation: Off
*  Target level: 72.7 dB
* Note: ; 
* Measurement: Etymotics ER2XR - L
* Smoothing: 1/48 octave
* Frequency Step: 1/24 octave
* Start Frequency: 20.000 Hz
*
* Freq(Hz)	SPL(dB)	Phase(degrees)
20.000000	81.053757	168.3764
20.600000	81.067238	167.3739
21.200001	81.039223	166.4423
21.799999	80.985428	165.5067
22.400000	80.917938	164.5402
23.000000	80.848175	163.5413
23.600000	80.784943	162.5091
24.299999	80.723442	161.2727
25.000000	80.674515	160.0465
25.799999	80.632195	158.7108
26.500000	80.600410	157.6177
27.200001	80.566025	156.6189
28.000000	80.520538	155.5974
29.000000	80.451881	154.4547
30.000000	80.378174	153.3672
30.700001	80.321091	152.5433
31.500000	80.242737	151.5933
32.500000	80.152512	150.4702
33.500000	80.072510	149.3000
34.500000	79.996613	148.2568
35.500000	79.945145	147.2363
36.500000	79.876129	146.1991
37.500000	79.801254	145.3590
38.700001	79.725891	144.3436
40.000000	79.637840	143.2002
41.200001	79.558823	142.0803
42.500000	79.461044	140.9695
43.700001	79.395111	140.1060
45.000000	79.330292	139.0822
46.200001	79.238403	138.2572
47.500000	79.169724	137.5169
48.700001	79.095993	136.5649
50.000000	79.008972	135.7099
51.500000	78.932640	134.5885
53.000000	78.855873	133.6179
54.500000	78.767014	132.8024
56.000000	78.695793	131.9631
58.000000	78.565582	130.8549
60.000000	78.355179	130.7503
61.500000	78.448380	129.2075
63.000000	78.330536	128.2276
65.000000	78.281189	127.0181
67.000000	78.203323	126.0386
69.000000	78.112793	125.0767
71.000000	78.028946	124.0671
73.000000	77.963272	123.2441
75.000000	77.906143	122.2716
77.500000	77.824905	121.1559
80.000000	77.727097	119.8402
82.500000	77.659637	118.7402
85.000000	77.602585	117.6829
87.500000	77.525948	116.6161
90.000000	77.462616	115.4999
92.500000	77.375916	114.4800
95.000000	77.331512	113.5181
97.500000	77.267754	112.4289
100.000000	77.192825	111.1968
103.000000	77.111298	109.8122
106.000000	77.041214	108.6233
109.000000	76.969963	107.6136
112.000000	76.890518	106.3139
115.000000	76.832077	105.0545
118.000000	76.770576	103.9459
122.000000	76.680428	102.4164
125.000000	76.600037	101.3696
128.000000	76.537804	100.3274
132.000000	76.449364	98.8411
136.000000	76.389870	97.4533
140.000000	76.283768	96.0831
145.000000	76.188644	94.4000
150.000000	76.114426	92.7193
155.000000	75.989098	91.1246
160.000000	75.905418	89.6234
165.000000	75.831772	87.9772
170.000000	75.737709	86.5497
175.000000	75.659630	84.7931
180.000000	75.687622	83.7924
185.000000	75.506653	82.1460
190.000000	75.441574	80.6589
195.000000	75.360687	79.3609
200.000000	75.300819	77.7135
206.000000	75.228287	76.1832
212.000000	75.171829	74.4787
218.000000	75.117645	73.2620
224.000000	74.931335	71.1085
230.000000	74.909271	70.2619
236.000000	74.822510	68.0789
243.000000	74.817200	66.7690
250.000000	74.814705	65.0252
258.000000	74.674614	62.8789
265.000000	74.670250	61.1783
272.000000	74.586609	59.5104
280.000000	74.507278	57.5720
290.000000	74.473091	55.3260
300.000000	74.462189	53.2342
307.000000	74.342896	51.4623
315.000000	74.289139	49.5747
325.000000	74.227943	47.4107
335.000000	74.177811	45.3484
345.000000	74.124130	43.1185
355.000000	74.084961	41.0222
365.000000	74.042961	38.9066
375.000000	73.980667	37.1952
387.000000	73.944389	34.5578
400.000000	73.883736	32.0528
412.000000	73.835114	29.7158
425.000000	73.787300	27.2001
437.000000	73.753014	24.8965
450.000000	73.714058	22.3810
462.000000	73.688782	20.4141
475.000000	73.686737	18.2158
487.000000	73.616096	15.9146
500.000000	73.559242	13.8058
515.000000	73.550865	11.0717
530.000000	73.501457	8.2679
545.000000	73.524239	6.1701
560.000000	73.462654	3.6082
580.000000	73.433731	0.4549
600.000000	73.393326	-2.6671
615.000000	73.321388	-5.0362
630.000000	73.299484	-6.9836
650.000000	73.219650	-9.5168
670.000000	73.181595	-12.3020
690.000000	73.177872	-14.5252
710.000000	73.175430	-16.8456
730.000000	73.164108	-19.2931
750.000000	73.172531	-21.4044
775.000000	73.182938	-24.0900
800.000000	73.202110	-26.7126
825.000000	73.240150	-29.0863
850.000000	73.307701	-31.2977
875.000000	73.368385	-33.4217
900.000000	73.460640	-35.3491
925.000000	73.572578	-37.2271
950.000000	73.705711	-39.1306
975.000000	73.884315	-40.8313
1000.000000	73.988823	-42.4489
1030.000000	74.361801	-44.4426
1060.000000	74.710251	-46.5408
1090.000000	75.076050	-48.9051
1120.000000	75.483223	-51.3522
1150.000000	75.921791	-54.2306
1180.000000	76.357407	-57.3886
1220.000000	76.915634	-61.9475
1250.000000	77.335541	-65.5426
1280.000000	77.728195	-69.4268
1320.000000	78.205048	-74.7047
1360.000000	78.674606	-80.3025
1400.000000	79.069992	-86.5439
1450.000000	79.404083	-94.5477
1500.000000	79.484970	-102.4779
1550.000000	79.322014	-108.7876
1600.000000	79.232788	-112.5389
1650.000000	79.377518	-115.6951
1700.000000	79.645218	-119.2745
1750.000000	79.962280	-123.2106
1800.000000	80.273407	-127.3055
1850.000000	80.580887	-131.4574
1900.000000	80.884636	-135.7351
1950.000000	81.176765	-139.9873
2000.000000	81.455032	-144.0681
2060.000000	81.774094	-149.2321
2120.000000	82.085281	-154.3950
2180.000000	82.381493	-159.4476
2240.000000	82.654175	-164.6307
2300.000000	82.899750	-169.6907
2360.000000	83.116905	-174.8115
2430.000000	83.315331	179.2925
2500.000000	83.470413	173.3943
2580.000000	83.562164	166.7996
2650.000000	83.580574	161.3080
2720.000000	83.541725	156.0482
2800.000000	83.445610	150.5156
2900.000000	83.208900	144.2227
3000.000000	82.892517	138.8679
3070.000000	82.673050	135.5958
3150.000000	82.373283	132.4161
3250.000000	81.980972	129.2375
3350.000000	81.570541	126.8679
3450.000000	81.173096	125.3118
3550.000000	80.793884	124.3150
3650.000000	80.426605	123.9767
3750.000000	80.072144	124.1332
3870.000000	79.672928	125.1354
4000.000000	79.308578	126.8635
4120.000000	78.947998	129.1074
4250.000000	78.629463	132.0379
4370.000000	78.347122	135.2766
4500.000000	78.082115	139.1553
4620.000000	77.840225	143.1809
4750.000000	77.601341	147.8773
4870.000000	77.390930	152.4940
5000.000000	77.162521	158.0385
5150.000000	76.907806	164.3889
5300.000000	76.621040	171.3764
5450.000000	76.333870	178.9382
5600.000000	76.014931	-173.2020
5800.000000	75.534195	-161.8744
6000.000000	74.997261	-149.3445
6150.000000	74.603867	-139.5275
6300.000000	74.166603	-128.8292
6500.000000	73.581085	-113.6157
6700.000000	72.976288	-97.4027
6900.000000	72.380661	-79.9338
7100.000000	71.856796	-61.3734
7300.000000	71.365746	-41.7076
7500.000000	70.922302	-21.4061
7750.000000	70.481995	5.2465
8000.000000	70.119469	33.2862
8250.000000	69.996712	61.9322
8500.000000	70.002380	91.4545
8750.000000	70.214851	120.9776
9000.000000	70.595802	150.6183
9250.000000	71.187546	178.9975
9500.000000	71.838409	-155.0785
9750.000000	72.347168	-132.2950
10000.000000	72.226006	-112.4570
10300.000000	70.685455	-86.9994
10600.000000	68.245186	-53.9084
10900.000000	65.699883	-12.5610
11200.000000	63.337769	35.6353
11500.000000	61.667824	88.1038
11800.000000	60.469868	144.7534
12200.000000	59.960804	-136.2228
12500.000000	60.514397	-76.8224
12800.000000	61.854561	-19.1102
13200.000000	64.450073	52.4988
13600.000000	67.504868	116.4539
14000.000000	70.427116	172.0321
14500.000000	72.932281	-129.7106
15000.000000	73.040604	-74.5000
15500.000000	71.808777	-9.7357
16000.000000	70.649429	59.8550
16500.000000	69.254227	129.1733
17000.000000	66.764122	-161.3821
17500.000000	63.258484	-85.2156
18000.000000	59.413830	-1.9370
18500.000000	55.920055	85.4741
19000.000000	52.278843	176.5072
19500.000000	48.972813	-91.6259
