* Measurement data measured by REW V5.20 Beta 59
* Source: Headset (USB-C to 3.5mm Headphone Jack Adapter), MICROPHONE (Master Volume), R, volume: 0.258
* Format: 512k Log Swept Sine, 1 sweep at -6.0 dBFS with no timing reference
* Dated: Oct 30, 2020 8:21:49 PM
* REW Settings:
*  C-weighting compensation: Off
*  Target level: 75.0 dB
* Note: ; 
* Measurement: ER3XR Orange
* Smoothing: 1/48 octave
* Frequency Step: 1/24 octave
* Start Frequency: 20.600 Hz
*
* Freq(Hz)	SPL(dB)	Phase(degrees)
20.600000	78.991638	-125.3107
21.200001	79.120262	-126.3657
21.799999	79.208412	-127.6208
22.400000	79.331558	-128.8038
23.000000	79.447899	-129.5705
23.600000	79.533157	-130.4651
24.299999	79.670723	-131.7935
25.000000	79.805908	-132.9280
25.799999	79.899017	-134.1896
26.500000	79.977837	-135.3878
27.200001	80.107307	-136.3570
28.000000	80.224228	-137.3025
29.000000	80.319916	-138.7783
30.000000	80.410858	-139.9881
30.700001	80.505913	-140.8440
31.500000	80.581795	-141.7772
32.500000	80.657745	-142.9062
33.500000	80.739517	-144.0099
34.500000	80.821777	-145.1203
35.500000	80.883934	-146.1428
36.500000	80.946548	-147.0300
37.500000	81.004257	-147.9586
38.700001	81.065559	-149.1330
40.000000	81.134956	-150.2400
41.200001	81.198921	-151.2559
42.500000	81.260063	-152.2133
43.700001	81.311905	-153.0616
45.000000	81.357391	-154.1281
46.200001	81.388702	-154.8637
47.500000	81.425652	-155.8246
48.700001	81.455482	-156.5831
50.000000	81.498459	-157.3028
51.500000	81.536011	-158.2895
53.000000	81.567596	-159.1700
54.500000	81.585274	-159.9456
56.000000	81.618073	-160.7211
58.000000	81.648308	-161.7269
60.000000	81.660576	-162.8478
61.500000	81.693680	-163.3834
63.000000	81.707451	-164.0437
65.000000	81.743340	-164.8977
67.000000	81.736374	-165.7013
69.000000	81.754318	-166.4203
71.000000	81.744446	-167.1508
73.000000	81.757759	-167.8852
75.000000	81.754738	-168.5617
77.500000	81.758949	-169.3737
80.000000	81.759270	-170.1400
82.500000	81.752762	-170.8791
85.000000	81.747025	-171.5884
87.500000	81.739449	-172.2368
90.000000	81.698029	-172.9340
92.500000	81.717873	-173.5040
95.000000	81.703979	-174.1009
97.500000	81.690834	-174.6467
100.000000	81.672234	-175.1823
103.000000	81.654297	-175.7993
106.000000	81.631744	-176.3969
109.000000	81.606628	-176.9447
112.000000	81.583290	-177.4928
115.000000	81.558266	-178.0056
118.000000	81.534409	-178.5025
122.000000	81.497391	-179.0989
125.000000	81.466919	-179.5455
128.000000	81.436081	-179.9624
132.000000	81.397247	179.5226
136.000000	81.335342	178.9762
140.000000	81.311195	178.5222
145.000000	81.262550	177.9760
150.000000	81.205238	177.4606
155.000000	81.155899	176.9683
160.000000	81.099838	176.5374
165.000000	81.044373	176.1042
170.000000	80.989479	175.7096
175.000000	80.929367	175.3646
180.000000	80.865898	175.0296
185.000000	80.814857	174.7219
190.000000	80.757965	174.4294
195.000000	80.704086	174.1664
200.000000	80.648376	173.9110
206.000000	80.579651	173.5921
212.000000	80.514458	173.4203
218.000000	80.447037	173.1997
224.000000	80.382988	172.9804
230.000000	80.316780	172.8362
236.000000	80.253540	172.6754
243.000000	80.179359	172.5314
250.000000	80.107819	172.4122
258.000000	80.024536	172.3240
265.000000	79.950630	172.2286
272.000000	79.882111	172.1729
280.000000	79.803406	172.1441
290.000000	79.706970	172.1302
300.000000	79.608231	172.1354
307.000000	79.549370	172.1928
315.000000	79.471275	172.2677
325.000000	79.388908	172.4397
335.000000	79.294533	172.6189
345.000000	79.206238	172.7664
355.000000	79.148651	173.0078
365.000000	79.085678	173.2703
375.000000	79.039795	173.4612
387.000000	78.977211	173.6529
400.000000	78.908104	173.7869
412.000000	78.828217	173.8916
425.000000	78.740227	174.1313
437.000000	78.660286	174.3738
450.000000	78.575775	174.6797
462.000000	78.500961	174.9808
475.000000	78.421623	175.3256
487.000000	78.348366	175.6755
500.000000	78.273987	176.0685
515.000000	78.191597	176.5428
530.000000	78.109741	177.0562
545.000000	78.034775	177.5974
560.000000	77.960007	178.1584
580.000000	77.868408	178.9452
600.000000	77.781464	179.7499
615.000000	77.720573	-179.6191
630.000000	77.661674	-178.9678
650.000000	77.589485	-178.0645
670.000000	77.523750	-177.1191
690.000000	77.464401	-176.1295
710.000000	77.415657	-175.1038
730.000000	77.372925	-174.0658
750.000000	77.340363	-172.9826
775.000000	77.313629	-171.5850
800.000000	77.304924	-170.1696
825.000000	77.315033	-168.7306
850.000000	77.343231	-167.2757
875.000000	77.391418	-165.8410
900.000000	77.459457	-164.4507
925.000000	77.549896	-163.0944
950.000000	77.661819	-161.8270
975.000000	77.789169	-160.6426
1000.000000	77.932617	-159.5894
1030.000000	78.120621	-158.5123
1060.000000	78.319946	-157.6421
1090.000000	78.520897	-156.9901
1120.000000	78.719719	-156.5599
1150.000000	78.909721	-156.3175
1180.000000	79.083183	-156.2365
1220.000000	79.285027	-156.3383
1250.000000	79.415535	-156.5177
1280.000000	79.524200	-156.7489
1320.000000	79.638123	-157.0903
1360.000000	79.721222	-157.4160
1400.000000	79.778862	-157.6962
1450.000000	79.822662	-157.9457
1500.000000	79.846054	-158.0637
1550.000000	79.855576	-158.0498
1600.000000	79.859299	-157.9042
1650.000000	79.863014	-157.6759
1700.000000	79.864723	-157.3497
1750.000000	79.870102	-156.9463
1800.000000	79.878563	-156.4708
1850.000000	79.893730	-155.9444
1900.000000	79.917480	-155.3540
1950.000000	79.949219	-154.7500
2000.000000	79.989311	-154.1086
2060.000000	80.048538	-153.3114
2120.000000	80.120712	-152.5077
2180.000000	80.208847	-151.7063
2240.000000	80.310928	-150.9182
2300.000000	80.429817	-150.1703
2360.000000	80.563232	-149.4729
2430.000000	80.735321	-148.7536
2500.000000	80.923569	-148.1436
2580.000000	81.157211	-147.6008
2650.000000	81.374130	-147.2834
2720.000000	81.604301	-147.1217
2800.000000	81.876106	-147.1512
2900.000000	82.224640	-147.5639
3000.000000	82.570297	-148.4421
3070.000000	82.803635	-149.3374
3150.000000	83.052124	-150.6485
3250.000000	83.323654	-152.7140
3350.000000	83.536255	-155.1857
3450.000000	83.672295	-157.9810
3550.000000	83.723076	-160.9902
3650.000000	83.683990	-164.0729
3750.000000	83.558594	-167.0965
3870.000000	83.305412	-170.4949
4000.000000	82.926041	-173.7232
4120.000000	82.503227	-176.1709
4250.000000	81.996628	-178.2208
4370.000000	81.503967	-179.5542
4500.000000	80.966492	179.5642
4620.000000	80.477631	179.1899
4750.000000	79.964241	179.2081
4870.000000	79.513947	179.5410
5000.000000	79.051567	-179.8126
5150.000000	78.556656	-178.7542
5300.000000	78.104828	-177.4308
5450.000000	77.699059	-175.9075
5600.000000	77.343521	-174.2438
5800.000000	76.947464	-171.8839
6000.000000	76.642426	-169.5165
6150.000000	76.476852	-167.7952
6300.000000	76.362823	-166.2119
6500.000000	76.295647	-164.3963
6700.000000	76.312759	-163.0837
6900.000000	76.412025	-162.4062
7100.000000	76.594597	-162.4574
7300.000000	76.854256	-163.9355
7500.000000	77.071869	-166.9248
7750.000000	77.188530	-172.7080
8000.000000	76.970757	179.6572
8250.000000	76.278214	171.6129
8500.000000	75.164520	165.2909
8750.000000	74.027771	161.9640
9000.000000	73.095604	159.4009
9250.000000	72.371552	156.8726
9500.000000	71.867630	152.6471
9750.000000	71.230675	144.5335
10000.000000	69.858948	134.0487
10300.000000	67.051788	125.1658
10600.000000	63.839970	124.5668
10900.000000	61.025673	130.2039
11200.000000	58.844582	138.5270
11500.000000	57.063953	147.7405
11800.000000	55.824966	159.1595
12200.000000	55.047668	172.0485
12500.000000	54.815269	-179.9763
12800.000000	54.920296	-173.2513
13200.000000	55.654114	-166.5302
13600.000000	56.966499	-164.7651
14000.000000	58.851715	-168.0629
14500.000000	62.479740	178.6170
15000.000000	67.901276	142.1179
15500.000000	70.848473	57.4325
16000.000000	64.590218	-27.2654
16500.000000	55.785423	-68.0659
17000.000000	48.822781	-88.9097
17500.000000	43.794907	-103.7623
18000.000000	40.112106	-118.0475
18500.000000	37.851379	-135.1013
19000.000000	37.002411	-165.0738
19500.000000	35.906609	148.1287
