* Measurement data measured by REW V5.20
* Source: Headset (USB-C to 3.5mm Headphone Jack Adapter), MICROPHONE (Master Volume), R, volume: 0.260
* Format: 256k Log Swept Sine, 1 sweep at -6.0 dBFS with no timing reference
* Dated: Mar 6, 2021 2:26:58 PM
* REW Settings:
*  C-weighting compensation: On
*  Target level: 75.0 dB
* Note: ; 
* Measurement: EST 112 L
* Smoothing: 1/48 octave
* Frequency Step: 1/24 octave
* Start Frequency: 20.600 Hz
*
* Freq(Hz)	SPL(dB)	Phase(degrees)
20.600000	91.803375	-101.1418
21.200001	91.885712	-102.9418
21.799999	91.971916	-104.6648
22.400000	92.057564	-106.3944
23.000000	92.126030	-108.1030
23.600000	92.176346	-109.7273
24.299999	92.231750	-111.5297
25.000000	92.296509	-113.3262
25.799999	92.369225	-115.3586
26.500000	92.420723	-117.0197
27.200001	92.458099	-118.6008
28.000000	92.474724	-120.3841
29.000000	92.479042	-122.4149
30.000000	92.523529	-124.2991
30.700001	92.565392	-125.6636
31.500000	92.588043	-127.0985
32.500000	92.627823	-128.7694
33.500000	92.667610	-130.5987
34.500000	92.682182	-132.2498
35.500000	92.704376	-133.7276
36.500000	92.723915	-135.2061
37.500000	92.736809	-136.6390
38.700001	92.734886	-138.2443
40.000000	92.725235	-139.8951
41.200001	92.720108	-141.3777
42.500000	92.720154	-142.8807
43.700001	92.695389	-144.2678
45.000000	92.672798	-145.6578
46.200001	92.668770	-146.9137
47.500000	92.627563	-148.0999
48.700001	92.604408	-149.2314
50.000000	92.577850	-150.4800
51.500000	92.539093	-151.7230
53.000000	92.496719	-153.0278
54.500000	92.456535	-154.2289
56.000000	92.430023	-155.2733
58.000000	92.410614	-156.7432
60.000000	92.391220	-157.9955
61.500000	92.372635	-159.0216
63.000000	92.349358	-160.0000
65.000000	92.314240	-161.1645
67.000000	92.281258	-162.2612
69.000000	92.242813	-163.3643
71.000000	92.203079	-164.3743
73.000000	92.160614	-165.3344
75.000000	92.121765	-166.2636
77.500000	92.067139	-167.3519
80.000000	92.020111	-168.2721
82.500000	91.951584	-169.3476
85.000000	91.888924	-170.3076
87.500000	91.830139	-171.1318
90.000000	91.764984	-171.9926
92.500000	91.702309	-172.7440
95.000000	91.637810	-173.5072
97.500000	91.575165	-174.1953
100.000000	91.512222	-174.9001
103.000000	91.452469	-175.6115
106.000000	91.406387	-176.3356
109.000000	91.342987	-176.9720
112.000000	91.289963	-177.6213
115.000000	91.234207	-178.2222
118.000000	91.174988	-178.7803
122.000000	91.098793	-179.4522
125.000000	91.039528	-179.9400
128.000000	90.981628	179.6123
132.000000	90.904755	179.0583
136.000000	90.829659	178.5551
140.000000	90.753899	178.0882
145.000000	90.653061	177.5404
150.000000	90.563683	177.0943
155.000000	90.470078	176.6917
160.000000	90.378510	176.3118
165.000000	90.288521	175.9765
170.000000	90.198586	175.6880
175.000000	90.110741	175.4618
180.000000	90.032272	175.2606
185.000000	89.941612	175.0541
190.000000	89.858643	174.9195
195.000000	89.779831	174.8224
200.000000	89.699615	174.7224
206.000000	89.606071	174.6602
212.000000	89.513924	174.6318
218.000000	89.429359	174.6432
224.000000	89.344002	174.6455
230.000000	89.262115	174.6848
236.000000	89.182907	174.7288
243.000000	89.091721	174.8627
250.000000	89.003746	175.0019
258.000000	88.909027	175.2035
265.000000	88.824463	175.3696
272.000000	88.747925	175.5691
280.000000	88.662186	175.8368
290.000000	88.558151	176.1783
300.000000	88.463394	176.5762
307.000000	88.394897	176.7888
315.000000	88.326675	177.1826
325.000000	88.243896	177.6179
335.000000	88.166428	178.0811
345.000000	88.087387	178.5630
355.000000	88.015877	179.0563
365.000000	87.949608	179.5594
375.000000	87.886230	-179.9333
387.000000	87.812004	-179.2829
400.000000	87.740608	-178.5948
412.000000	87.679291	-177.9323
425.000000	87.616890	-177.1856
437.000000	87.563484	-176.5071
450.000000	87.512680	-175.7677
462.000000	87.467453	-175.0731
475.000000	87.423935	-174.3073
487.000000	87.387199	-173.6097
500.000000	87.352493	-172.8367
515.000000	87.315132	-171.9423
530.000000	87.283775	-171.0432
545.000000	87.257118	-170.1377
560.000000	87.233932	-169.2310
580.000000	87.211243	-168.0223
600.000000	87.195282	-166.8039
615.000000	87.188148	-165.8980
630.000000	87.185486	-164.9869
650.000000	87.186546	-163.7602
670.000000	87.195045	-162.5439
690.000000	87.211128	-161.3260
710.000000	87.233910	-160.1055
730.000000	87.263145	-158.8810
750.000000	87.299408	-157.6583
775.000000	87.355957	-156.1444
800.000000	87.423615	-154.6180
825.000000	87.503281	-153.1168
850.000000	87.597664	-151.6261
875.000000	87.705841	-150.1670
900.000000	87.827797	-148.7445
925.000000	87.964127	-147.3769
950.000000	88.111588	-146.0743
975.000000	88.272324	-144.8571
1000.000000	88.441849	-143.7202
1030.000000	88.656273	-142.4959
1060.000000	88.878151	-141.4219
1090.000000	89.099419	-140.4936
1120.000000	89.316368	-139.7040
1150.000000	89.532196	-138.9647
1180.000000	89.751648	-138.3866
1220.000000	90.021141	-137.8147
1250.000000	90.199730	-137.4339
1280.000000	90.376160	-136.9545
1320.000000	90.621185	-136.4232
1360.000000	90.857910	-135.9722
1400.000000	91.089043	-135.5547
1450.000000	91.376434	-135.0718
1500.000000	91.666336	-134.6380
1550.000000	91.964127	-134.2790
1600.000000	92.272598	-134.0121
1650.000000	92.591240	-133.8708
1700.000000	92.919952	-133.8940
1750.000000	93.256927	-134.1096
1800.000000	93.598564	-134.5498
1850.000000	93.941895	-135.2496
1900.000000	94.278519	-136.2330
1950.000000	94.601196	-137.5195
2000.000000	94.900139	-139.1190
2060.000000	95.213654	-141.4297
2120.000000	95.458618	-144.1079
2180.000000	95.619080	-147.0466
2240.000000	95.685577	-150.0945
2300.000000	95.657074	-153.0866
2360.000000	95.542091	-155.8630
2430.000000	95.320038	-158.6757
2500.000000	95.032547	-160.9459
2580.000000	94.657639	-162.8774
2650.000000	94.312126	-164.0293
2720.000000	93.964104	-164.7349
2800.000000	93.574394	-165.0708
2900.000000	93.114433	-164.8807
3000.000000	92.696182	-164.1262
3070.000000	92.434151	-163.3118
3150.000000	92.169220	-162.1471
3250.000000	91.892967	-160.4213
3350.000000	91.678185	-158.4777
3450.000000	91.525208	-156.3989
3550.000000	91.433449	-154.2454
3650.000000	91.401657	-152.0811
3750.000000	91.432205	-149.9787
3870.000000	91.554665	-147.8302
4000.000000	91.611183	-145.4816
4120.000000	91.899139	-143.0539
4250.000000	92.289795	-141.3712
4370.000000	92.715065	-140.4649
4500.000000	93.239365	-140.3816
4620.000000	93.756210	-141.3710
4750.000000	94.295212	-143.8508
4870.000000	94.691566	-147.5579
5000.000000	94.893616	-152.8515
5150.000000	94.713699	-159.4875
5300.000000	94.127861	-164.9154
5450.000000	93.361641	-168.1991
5600.000000	92.602180	-169.7773
5800.000000	91.679230	-170.3081
6000.000000	90.872787	-169.6477
6150.000000	90.355186	-168.6696
6300.000000	89.904343	-167.5162
6500.000000	89.367081	-165.9173
6700.000000	88.851379	-164.1371
6900.000000	88.347008	-161.7542
7100.000000	87.922195	-158.3430
7300.000000	87.685295	-154.1157
7500.000000	87.682564	-149.3671
7750.000000	88.129906	-143.4100
8000.000000	89.153603	-139.0294
8250.000000	90.707993	-138.5754
8500.000000	92.417656	-145.2022
8750.000000	93.268837	-159.3054
9000.000000	92.636292	-172.8104
9250.000000	91.399628	-178.9752
9500.000000	90.540245	-179.3024
9750.000000	90.543678	-177.5161
10000.000000	91.503639	-178.5492
10300.000000	93.413017	166.6399
10600.000000	92.479599	134.7653
10900.000000	88.360855	119.9914
11200.000000	85.020065	122.0500
11500.000000	83.249153	125.6289
11800.000000	81.612404	125.5596
12200.000000	79.348328	131.3693
12500.000000	78.644737	136.8182
12800.000000	78.452011	139.1836
13200.000000	78.567841	138.1904
13600.000000	79.229019	131.9762
14000.000000	80.268715	113.4384
14500.000000	77.228539	72.8762
15000.000000	71.332550	86.5002
15500.000000	75.603348	95.3497
16000.000000	78.351288	46.0507
16500.000000	72.749512	8.9551
17000.000000	70.614349	0.9415
17500.000000	70.128578	-15.1785
18000.000000	70.175903	-44.7491
18500.000000	70.085876	-83.2692
19000.000000	70.221405	-136.0262
19500.000000	69.705574	146.0882
