* Measurement data measured by REW V5.20
* Source: Headset (USB-C to 3.5mm Headphone Jack Adapter), MICROPHONE (Master Volume), R, volume: 0.260
* Format: 256k Log Swept Sine, 1 sweep at -6.0 dBFS with no timing reference
* Dated: Mar 6, 2021 2:27:54 PM
* REW Settings:
*  C-weighting compensation: Off
*  Target level: 75.0 dB
* Note: ; 
* Measurement: EST 112 R
* Smoothing: 1/48 octave
* Frequency Step: 1/24 octave
* Start Frequency: 20.600 Hz
*
* Freq(Hz)	SPL(dB)	Phase(degrees)
20.600000	92.079659	-100.6235
21.200001	92.166588	-102.5208
21.799999	92.252640	-104.4518
22.400000	92.332085	-106.3157
23.000000	92.403214	-108.0029
23.600000	92.470703	-109.5570
24.299999	92.539246	-111.3716
25.000000	92.587616	-113.2081
25.799999	92.635757	-115.1986
26.500000	92.685806	-116.8177
27.200001	92.736954	-118.3068
28.000000	92.792664	-119.8746
29.000000	92.829765	-121.9135
30.000000	92.797195	-123.9782
30.700001	92.794571	-125.3054
31.500000	92.834839	-126.8357
32.500000	92.902664	-128.7799
33.500000	92.943237	-130.4885
34.500000	92.970947	-132.0557
35.500000	92.991547	-133.6661
36.500000	93.005608	-135.0909
37.500000	93.021362	-136.4123
38.700001	93.009041	-138.0851
40.000000	93.017654	-139.8405
41.200001	93.012207	-141.2908
42.500000	92.988609	-142.6544
43.700001	92.972076	-144.1421
45.000000	92.970276	-145.6500
46.200001	92.967140	-146.7225
47.500000	92.926910	-147.8810
48.700001	92.891235	-149.0086
50.000000	92.872025	-150.2088
51.500000	92.828506	-151.5305
53.000000	92.785522	-152.9822
54.500000	92.772728	-154.1322
56.000000	92.724098	-155.1834
58.000000	92.703766	-156.7119
60.000000	92.687965	-157.9865
61.500000	92.670113	-159.0027
63.000000	92.632729	-159.7822
65.000000	92.594780	-161.1296
67.000000	92.589165	-162.3925
69.000000	92.582802	-163.3762
71.000000	92.533852	-164.1183
73.000000	92.429741	-165.2602
75.000000	92.447670	-166.5476
77.500000	92.440842	-167.3404
80.000000	92.328041	-167.9790
82.500000	92.196953	-169.3712
85.000000	92.238785	-170.5347
87.500000	92.140022	-170.7701
90.000000	92.083725	-172.1759
92.500000	92.035248	-172.5885
95.000000	91.955101	-173.6277
97.500000	91.912773	-174.2738
100.000000	91.807655	-175.0300
103.000000	91.837280	-175.5536
106.000000	91.678032	-176.9991
109.000000	91.617447	-176.5555
112.000000	91.720406	-177.4750
115.000000	91.649536	-178.9663
118.000000	91.493538	-179.8208
122.000000	91.304214	179.5766
125.000000	91.171013	179.4162
128.000000	91.105423	179.2701
132.000000	91.064751	178.4571
136.000000	91.082237	177.3831
140.000000	91.166763	177.1290
145.000000	90.995506	177.6564
150.000000	90.867149	176.3740
155.000000	90.802620	176.3362
160.000000	90.709656	175.9727
165.000000	90.642899	175.4590
170.000000	90.530807	175.0068
175.000000	90.421059	174.7175
180.000000	90.332947	174.5728
185.000000	90.252678	174.4149
190.000000	90.184425	174.3100
195.000000	90.102173	174.2726
200.000000	90.002121	174.1621
206.000000	89.915955	173.9255
212.000000	89.816254	174.0010
218.000000	89.727356	173.8567
224.000000	89.636284	173.9011
230.000000	89.549225	173.9371
236.000000	89.468254	173.9795
243.000000	89.373177	174.0604
250.000000	89.278580	174.1966
258.000000	89.177238	174.3647
265.000000	89.090828	174.5430
272.000000	89.009567	174.7393
280.000000	88.918068	174.9794
290.000000	88.808838	175.3295
300.000000	88.702980	175.7302
307.000000	88.634949	176.0028
315.000000	88.558846	176.3454
325.000000	88.467453	176.7838
335.000000	88.379883	177.2404
345.000000	88.297874	177.7326
355.000000	88.218071	178.2464
365.000000	88.146423	178.7716
375.000000	88.077179	179.3032
387.000000	87.997520	179.9609
400.000000	87.917450	-179.3113
412.000000	87.852249	-178.6172
425.000000	87.783661	-177.8618
437.000000	87.726562	-177.1505
450.000000	87.668549	-176.3617
462.000000	87.619408	-175.6267
475.000000	87.569641	-174.8262
487.000000	87.530197	-174.0911
500.000000	87.490608	-173.2809
515.000000	87.448898	-172.3413
530.000000	87.415657	-171.3965
545.000000	87.386925	-170.4436
560.000000	87.361252	-169.4917
580.000000	87.335892	-168.2220
600.000000	87.319656	-166.9382
615.000000	87.312988	-165.9822
630.000000	87.309715	-165.0284
650.000000	87.314064	-163.7574
670.000000	87.324379	-162.4851
690.000000	87.343285	-161.2158
710.000000	87.367828	-159.9494
730.000000	87.402435	-158.6856
750.000000	87.441902	-157.4375
775.000000	87.503174	-155.8656
800.000000	87.577019	-154.3182
825.000000	87.662117	-152.7855
850.000000	87.762497	-151.2735
875.000000	87.875778	-149.7997
900.000000	88.003067	-148.3696
925.000000	88.144432	-146.9979
950.000000	88.299026	-145.6963
975.000000	88.466896	-144.4638
1000.000000	88.645531	-143.3380
1030.000000	88.871666	-142.1341
1060.000000	89.110794	-141.1115
1090.000000	89.364494	-140.3394
1120.000000	89.617546	-140.1654
1150.000000	89.664993	-140.2173
1180.000000	89.752312	-138.7131
1220.000000	90.070633	-137.3087
1250.000000	90.299011	-136.7386
1280.000000	90.508072	-136.3000
1320.000000	90.768524	-135.7982
1360.000000	91.014778	-135.3544
1400.000000	91.254944	-134.9438
1450.000000	91.551575	-134.4668
1500.000000	91.851059	-134.0494
1550.000000	92.156265	-133.7070
1600.000000	92.470444	-133.4639
1650.000000	92.793472	-133.3592
1700.000000	93.125900	-133.4146
1750.000000	93.465057	-133.6656
1800.000000	93.809685	-134.1427
1850.000000	94.153488	-134.8778
1900.000000	94.491646	-135.8988
1950.000000	94.815338	-137.2150
2000.000000	95.115189	-138.8441
2060.000000	95.430855	-141.1850
2120.000000	95.680550	-143.9076
2180.000000	95.847870	-146.9089
2240.000000	95.922852	-150.0530
2300.000000	95.901863	-153.1866
2360.000000	95.789513	-156.1519
2430.000000	95.559219	-159.2334
2500.000000	95.246849	-161.7871
2580.000000	94.824409	-163.9711
2650.000000	94.426643	-165.2499
2720.000000	94.022919	-165.9920
2800.000000	93.573036	-166.2523
2900.000000	93.048256	-165.8356
3000.000000	92.583527	-164.7664
3070.000000	92.299278	-163.7225
3150.000000	92.016792	-162.2966
3250.000000	91.727440	-160.2563
3350.000000	91.505959	-158.0360
3450.000000	91.351463	-155.6927
3550.000000	91.260292	-153.3020
3650.000000	91.228157	-150.9047
3750.000000	91.255585	-148.5638
3870.000000	91.363739	-145.8990
4000.000000	91.541809	-143.2053
4120.000000	91.832817	-140.8085
4250.000000	92.240829	-138.9039
4370.000000	92.693604	-137.7464
4500.000000	93.263702	-137.3725
4620.000000	93.842567	-138.1147
4750.000000	94.474533	-140.4336
4870.000000	94.977844	-144.1955
5000.000000	95.301048	-149.9440
5150.000000	95.199753	-157.6700
5300.000000	94.556702	-164.2972
5450.000000	93.629478	-168.0082
5600.000000	92.751282	-169.1279
5800.000000	91.817856	-168.8919
6000.000000	91.053711	-167.8745
6150.000000	90.561920	-166.7350
6300.000000	90.138977	-165.3871
6500.000000	89.664886	-163.4820
6700.000000	89.252350	-161.5084
6900.000000	88.882332	-159.2379
7100.000000	88.591240	-156.3304
7300.000000	88.455841	-152.9304
7500.000000	88.512123	-149.2070
7750.000000	88.973122	-144.6028
8000.000000	89.946136	-141.6414
8250.000000	91.350365	-142.6338
8500.000000	92.776566	-150.0980
8750.000000	93.316315	-163.4928
9000.000000	92.584671	-175.2567
9250.000000	91.432297	179.6403
9500.000000	90.676109	179.5817
9750.000000	90.707947	-178.8807
10000.000000	91.635963	-179.6280
10300.000000	93.654434	166.3696
10600.000000	92.991013	134.0152
10900.000000	88.949203	117.2385
11200.000000	85.501106	117.8140
11500.000000	83.588425	120.4904
11800.000000	81.669464	119.2341
12200.000000	79.105194	127.4393
12500.000000	78.553047	133.7921
12800.000000	78.506966	135.7348
13200.000000	78.685730	133.6547
13600.000000	79.444695	126.3547
14000.000000	80.575241	104.5510
14500.000000	76.706467	60.6418
15000.000000	70.379929	80.3854
15500.000000	75.166382	88.1055
16000.000000	77.356491	36.7115
16500.000000	71.030869	2.2907
17000.000000	69.561165	10.7544
17500.000000	70.714363	-14.2131
18000.000000	70.406425	-46.5682
18500.000000	70.423889	-86.0148
19000.000000	70.626862	-141.4238
19500.000000	69.796021	135.2621
