* Measurement data measured by REW V5.20 Beta 59
* Source: Headset (USB-C to 3.5mm Headphone Jack Adapter), MICROPHONE (Master Volume), R, volume: 0.625
* Format: 512k Log Swept Sine, 1 sweep at -6.0 dBFS with no timing reference
* Dated: Aug 26, 2020 10:20:40 PM
* REW Settings:
*  C-weighting compensation: Off
*  Target level: 75.0 dB
* Note: ; 
* Measurement: VE EVE20 - R
* Smoothing: 1/48 octave
* Frequency Step: 1/24 octave
* Start Frequency: 20.600 Hz
*
* Freq(Hz)	SPL(dB)	Phase(degrees)
20.600000	82.727081	24.8848
21.200001	82.623108	24.3988
21.799999	82.671585	24.1366
22.400000	82.648666	23.6586
23.000000	82.592712	21.8246
23.600000	82.628227	20.7810
24.299999	82.605202	21.0436
25.000000	82.717697	20.2416
25.799999	82.901093	20.0938
26.500000	82.799049	19.2629
27.200001	82.862091	18.0485
28.000000	82.864243	17.8034
29.000000	82.830078	16.9367
30.000000	82.860809	15.7375
30.700001	82.926292	15.2105
31.500000	82.935135	14.7931
32.500000	82.897552	13.9984
33.500000	82.972076	13.3165
34.500000	82.967560	12.9253
35.500000	82.970245	12.0280
36.500000	82.963570	11.7419
37.500000	82.998589	11.2589
38.700001	82.960358	10.2555
40.000000	83.032127	9.7988
41.200001	82.990463	8.9808
42.500000	83.013763	8.4430
43.700001	83.018646	7.9501
45.000000	82.996979	7.3957
46.200001	83.052788	7.0790
47.500000	83.019249	6.3486
48.700001	82.976891	5.8031
50.000000	83.008965	5.4655
51.500000	83.038872	4.9263
53.000000	82.984154	4.3959
54.500000	83.015442	3.7577
56.000000	83.009933	3.5040
58.000000	83.012909	2.7794
60.000000	82.950195	2.4496
61.500000	82.985115	1.6978
63.000000	82.968010	1.3189
65.000000	82.957809	0.7506
67.000000	82.950333	0.2138
69.000000	82.937706	-0.2028
71.000000	82.924644	-0.7280
73.000000	82.916916	-1.0882
75.000000	82.883125	-1.6525
77.500000	82.866005	-2.1900
80.000000	82.851456	-2.6797
82.500000	82.828972	-3.1646
85.000000	82.807343	-3.6206
87.500000	82.784409	-4.1465
90.000000	82.759041	-4.5999
92.500000	82.726181	-5.0518
95.000000	82.707985	-5.4226
97.500000	82.752106	-6.1022
100.000000	82.665649	-6.1983
103.000000	82.625908	-6.7342
106.000000	82.593170	-7.1029
109.000000	82.561798	-7.5857
112.000000	82.526451	-8.0008
115.000000	82.488785	-8.3349
118.000000	82.451324	-8.7028
122.000000	82.403442	-9.1685
125.000000	82.360641	-9.5572
128.000000	82.324280	-9.9184
132.000000	82.279007	-10.3441
136.000000	82.227066	-10.7142
140.000000	82.172035	-11.1767
145.000000	82.112785	-11.6274
150.000000	82.050827	-12.0527
155.000000	81.982483	-12.4827
160.000000	81.920639	-12.9102
165.000000	81.851135	-13.2580
170.000000	81.787621	-13.6315
175.000000	81.721069	-13.9685
180.000000	81.656540	-14.2402
185.000000	81.592812	-14.6125
190.000000	81.527191	-14.8816
195.000000	81.469849	-15.2559
200.000000	81.392746	-15.4041
206.000000	81.314789	-15.7596
212.000000	81.240051	-15.9386
218.000000	81.169464	-16.1871
224.000000	81.091011	-16.4665
230.000000	81.005600	-16.6391
236.000000	80.919319	-16.9166
243.000000	80.831070	-17.0379
250.000000	80.745491	-17.2404
258.000000	80.650414	-17.4719
265.000000	80.556686	-17.5786
272.000000	80.474304	-17.7342
280.000000	80.375938	-17.8543
290.000000	80.257889	-17.9300
300.000000	80.124214	-18.1015
307.000000	80.052635	-18.1054
315.000000	79.960083	-18.1776
325.000000	79.840874	-18.1757
335.000000	79.723907	-18.1773
345.000000	79.617493	-18.1319
355.000000	79.510201	-18.0634
365.000000	79.397568	-17.9780
375.000000	79.293137	-17.8919
387.000000	79.163376	-17.7536
400.000000	79.032867	-17.5546
412.000000	78.909973	-17.3596
425.000000	78.781143	-17.1172
437.000000	78.665123	-16.8256
450.000000	78.543694	-16.5136
462.000000	78.436203	-16.2215
475.000000	78.313866	-15.8410
487.000000	78.209526	-15.4640
500.000000	78.101669	-15.0622
515.000000	77.972260	-14.5563
530.000000	77.856659	-13.9878
545.000000	77.735481	-13.4424
560.000000	77.621292	-12.8276
580.000000	77.477570	-11.9644
600.000000	77.333969	-11.0640
615.000000	77.245102	-10.3436
630.000000	77.151917	-9.6036
650.000000	77.037025	-8.5638
670.000000	76.935448	-7.4763
690.000000	76.836052	-6.3614
710.000000	76.749954	-5.1688
730.000000	76.675491	-3.9695
750.000000	76.610878	-2.7381
775.000000	76.549881	-1.1270
800.000000	76.500763	0.5007
825.000000	76.484337	2.1123
850.000000	76.488686	3.7933
875.000000	76.508286	5.4294
900.000000	76.554253	7.0192
925.000000	76.628082	8.6232
950.000000	76.714279	10.1269
975.000000	76.816284	11.5709
1000.000000	76.947044	12.8667
1030.000000	77.115822	14.2781
1060.000000	77.296173	15.5199
1090.000000	77.492683	16.5985
1120.000000	77.692863	17.4860
1150.000000	77.890930	18.2234
1180.000000	78.086990	18.7958
1220.000000	78.343384	19.3825
1250.000000	78.531601	19.6994
1280.000000	78.708328	19.9310
1320.000000	78.941376	20.1032
1360.000000	79.165375	20.1643
1400.000000	79.380028	20.0955
1450.000000	79.638992	19.8117
1500.000000	79.891281	19.3315
1550.000000	80.120384	18.6143
1600.000000	80.326286	17.6711
1650.000000	80.500748	16.4662
1700.000000	80.628586	15.0930
1750.000000	80.705772	13.5179
1800.000000	80.721313	11.8883
1850.000000	80.676865	10.2875
1900.000000	80.567406	8.7974
1950.000000	80.404037	7.5312
2000.000000	80.189331	6.5772
2060.000000	79.886169	5.8887
2120.000000	79.554733	5.7873
2180.000000	79.217720	6.2892
2240.000000	78.896019	7.3592
2300.000000	78.610657	8.9679
2360.000000	78.380089	11.0300
2430.000000	78.187866	13.8840
2500.000000	78.101547	17.0829
2580.000000	78.143456	20.9179
2650.000000	78.307335	24.1720
2720.000000	78.579590	27.1081
2800.000000	78.996460	29.8078
2900.000000	79.607651	31.9954
3000.000000	80.237206	32.7686
3070.000000	80.646805	32.5032
3150.000000	81.027321	31.5586
3250.000000	81.320679	29.8165
3350.000000	81.412895	28.4764
3450.000000	81.433113	28.2689
3550.000000	81.528732	28.8035
3650.000000	81.730026	29.2939
3750.000000	81.971008	29.2990
3870.000000	82.218124	28.7024
4000.000000	82.369614	27.8564
4120.000000	82.419258	27.6348
4250.000000	82.496635	28.3453
4370.000000	82.704857	29.4849
4500.000000	83.113548	30.3363
4620.000000	83.594894	30.0909
4750.000000	84.123795	28.2988
4870.000000	84.510529	25.2888
5000.000000	84.704178	21.0329
5150.000000	84.563026	15.8253
5300.000000	84.064323	11.6153
5450.000000	83.356201	9.1397
5600.000000	82.403046	7.7411
5800.000000	81.001030	16.8206
6000.000000	81.524628	24.3733
6150.000000	82.100586	26.5564
6300.000000	82.698677	25.4638
6500.000000	83.168678	19.1695
6700.000000	81.128784	14.4341
6900.000000	80.123848	27.9143
7100.000000	80.939484	38.4876
7300.000000	82.270889	43.7269
7500.000000	83.749977	44.7035
7750.000000	85.557617	39.9727
8000.000000	86.801773	28.7935
8250.000000	86.933052	15.0247
8500.000000	86.153740	3.9749
8750.000000	85.046783	-2.9983
9000.000000	83.908257	-6.8816
9250.000000	83.121216	-7.7993
9500.000000	82.420891	-12.2176
9750.000000	81.489296	-14.7888
10000.000000	80.747635	-17.8566
10300.000000	79.258965	-21.4897
10600.000000	77.791206	-21.5075
10900.000000	76.668129	-19.6719
11200.000000	75.944016	-17.9590
11500.000000	75.531204	-17.9921
11800.000000	75.182602	-20.3517
12200.000000	74.706001	-25.6054
12500.000000	74.130226	-31.5133
12800.000000	73.368591	-36.8516
13200.000000	72.537781	-43.1891
13600.000000	72.043823	-53.5255
14000.000000	70.637650	-71.6351
14500.000000	66.409653	-84.3240
15000.000000	62.745052	-80.9683
15500.000000	63.590202	-76.6870
16000.000000	64.269943	-101.8902
16500.000000	62.698181	-131.2628
17000.000000	61.884579	-157.6590
17500.000000	61.779694	165.3445
18000.000000	61.228851	120.7634
18500.000000	60.258171	71.6653
19000.000000	59.426552	15.9713
19500.000000	58.518478	-59.0575
