* Measurement data measured by REW V5.20
* Source: Headset (USB-C to 3.5mm Headphone Jack Adapter), MICROPHONE (Master Volume), R, volume: 0.260
* Format: 256k Log Swept Sine, 1 sweep at -6.0 dBFS with no timing reference
* Dated: Sep 20, 2021 4:44:08 PM
* REW Settings:
*  C-weighting compensation: Off
*  Target level: 75.0 dB
* Note: ; 
* Measurement: Falcon Pro R
* Smoothing: 1/48 octave
* Frequency Step: 1/24 octave
* Start Frequency: 20.600 Hz
*
* Freq(Hz)	SPL(dB)	Phase(degrees)
20.600000	84.105072	-84.4529
21.200001	84.301613	-86.3384
21.799999	84.473740	-87.9789
22.400000	84.662933	-89.6572
23.000000	84.837547	-91.6561
23.600000	84.953377	-93.7131
24.299999	85.057549	-95.6335
25.000000	85.201805	-97.1801
25.799999	85.353821	-99.0993
26.500000	85.419083	-100.7410
27.200001	85.487175	-102.2803
28.000000	85.605789	-104.3069
29.000000	85.752121	-106.7430
30.000000	85.935631	-108.6372
30.700001	86.043648	-110.0634
31.500000	86.106796	-111.6505
32.500000	86.180969	-113.4386
33.500000	86.278366	-115.2550
34.500000	86.386993	-117.0525
35.500000	86.466545	-118.8634
36.500000	86.514206	-120.4061
37.500000	86.586357	-122.0059
38.700001	86.675018	-123.9279
40.000000	86.784386	-125.6767
41.200001	86.796753	-127.1142
42.500000	86.854973	-128.7358
43.700001	86.909439	-130.4210
45.000000	86.965141	-131.8246
46.200001	86.998688	-133.3076
47.500000	87.047501	-134.6773
48.700001	87.068062	-135.9032
50.000000	87.072609	-137.1270
51.500000	87.122284	-138.7204
53.000000	87.181610	-140.0699
54.500000	87.200768	-141.3516
56.000000	87.232437	-142.6896
58.000000	87.275665	-144.2120
60.000000	87.278709	-145.5627
61.500000	87.291031	-146.8450
63.000000	87.309265	-147.9690
65.000000	87.330360	-149.2700
67.000000	87.358170	-150.4554
69.000000	87.351822	-151.7570
71.000000	87.368706	-153.0335
73.000000	87.382248	-154.0143
75.000000	87.379883	-155.1918
77.500000	87.398209	-156.4199
80.000000	87.325134	-157.2093
82.500000	87.358047	-158.7884
85.000000	87.368134	-160.0150
87.500000	87.370659	-161.0248
90.000000	87.361038	-162.0209
92.500000	87.340508	-163.0664
95.000000	87.339348	-164.0254
97.500000	87.324051	-164.8645
100.000000	87.305939	-165.7922
103.000000	87.299683	-166.7076
106.000000	87.281563	-167.7424
109.000000	87.268051	-168.6930
112.000000	87.249519	-169.5478
115.000000	87.236679	-170.3833
118.000000	87.216270	-171.1942
122.000000	87.194061	-172.2638
125.000000	87.175507	-173.0037
128.000000	87.149841	-173.6711
132.000000	87.124405	-174.6660
136.000000	87.091583	-175.5473
140.000000	87.062164	-176.4069
145.000000	87.019691	-177.4392
150.000000	86.973854	-178.3952
155.000000	86.933617	-179.2694
160.000000	86.869858	179.7866
165.000000	86.829224	178.9974
170.000000	86.776184	178.2234
175.000000	86.720711	177.4912
180.000000	86.654793	176.7391
185.000000	86.607857	176.0385
190.000000	86.554413	175.4241
195.000000	86.494064	174.7953
200.000000	86.443817	174.1827
206.000000	86.372604	173.5178
212.000000	86.298508	172.8812
218.000000	86.230026	172.2539
224.000000	86.150894	171.6823
230.000000	86.079437	171.0880
236.000000	86.003311	170.6125
243.000000	85.915192	170.0458
250.000000	85.828545	169.4520
258.000000	85.722534	168.8998
265.000000	85.632996	168.4448
272.000000	85.537506	168.0257
280.000000	85.439079	167.5025
290.000000	85.307983	166.9833
300.000000	85.181740	166.5528
307.000000	85.089554	166.2186
315.000000	84.981697	165.8515
325.000000	84.854767	165.5184
335.000000	84.726791	165.2033
345.000000	84.603508	164.9232
355.000000	84.478378	164.6929
365.000000	84.344009	164.4847
375.000000	84.224754	164.3052
387.000000	84.079529	164.1578
400.000000	83.916420	164.0472
412.000000	83.775536	164.0130
425.000000	83.616318	163.9606
437.000000	83.476486	163.9893
450.000000	83.328400	164.0349
462.000000	83.189087	164.1461
475.000000	83.041275	164.2709
487.000000	82.910301	164.4521
500.000000	82.767387	164.6561
515.000000	82.602898	164.9445
530.000000	82.449570	165.3122
545.000000	82.294968	165.6782
560.000000	82.144272	166.1010
580.000000	81.949677	166.7307
600.000000	81.760216	167.4284
615.000000	81.620087	167.9858
630.000000	81.483681	168.5942
650.000000	81.310455	169.4656
670.000000	81.143463	170.4037
690.000000	80.979958	171.4600
710.000000	80.837814	172.6226
730.000000	80.730560	173.7372
750.000000	80.609772	174.7269
775.000000	80.448364	176.0926
800.000000	80.293739	177.6182
825.000000	80.164909	179.4648
850.000000	80.087967	-178.7699
875.000000	80.022812	-177.0404
900.000000	79.978706	-175.3090
925.000000	79.950867	-173.5856
950.000000	79.942299	-171.8676
975.000000	79.956894	-170.1894
1000.000000	79.989212	-168.5865
1030.000000	80.050041	-166.7406
1060.000000	80.126984	-165.0304
1090.000000	80.220879	-163.4577
1120.000000	80.324776	-162.0233
1150.000000	80.426811	-160.7279
1180.000000	80.531860	-159.5396
1220.000000	80.663910	-158.0995
1250.000000	80.759239	-157.0939
1280.000000	80.852127	-156.1137
1320.000000	80.962967	-154.8736
1360.000000	81.072968	-153.6250
1400.000000	81.178833	-152.3615
1450.000000	81.321915	-150.7503
1500.000000	81.479813	-149.1121
1550.000000	81.654968	-147.4541
1600.000000	81.864136	-145.8336
1650.000000	82.104401	-144.3256
1700.000000	82.374405	-142.9879
1750.000000	82.673065	-141.8943
1800.000000	82.985847	-141.1201
1850.000000	83.298508	-140.6546
1900.000000	83.599586	-140.5299
1950.000000	83.875015	-140.6820
2000.000000	84.119820	-141.0229
2060.000000	84.366829	-141.5921
2120.000000	84.563835	-142.2428
2180.000000	84.721840	-142.8602
2240.000000	84.849464	-143.4353
2300.000000	84.951233	-143.9299
2360.000000	85.037819	-144.3531
2430.000000	85.125732	-144.7460
2500.000000	85.202484	-145.0591
2580.000000	85.280846	-145.3375
2650.000000	85.346252	-145.5351
2720.000000	85.405098	-145.6817
2800.000000	85.470848	-145.8183
2900.000000	85.549644	-145.9284
3000.000000	85.626869	-146.0166
3070.000000	85.680695	-146.0529
3150.000000	85.742638	-146.0825
3250.000000	85.823799	-146.1019
3350.000000	85.908112	-146.1446
3450.000000	85.995468	-146.2063
3550.000000	86.087379	-146.3021
3650.000000	86.184120	-146.4493
3750.000000	86.284546	-146.6571
3870.000000	86.407547	-147.0110
4000.000000	86.544907	-147.5540
4120.000000	86.671692	-148.2266
4250.000000	86.804184	-149.2061
4370.000000	86.905357	-150.3618
4500.000000	86.951584	-151.6175
4620.000000	87.089874	-152.6088
4750.000000	87.194077	-154.8765
4870.000000	87.196678	-157.1714
5000.000000	87.120392	-159.7910
5150.000000	86.924561	-162.8865
5300.000000	86.603760	-165.8501
5450.000000	86.168312	-168.4083
5600.000000	85.643280	-170.3811
5800.000000	84.856865	-171.8743
6000.000000	84.045471	-172.0521
6150.000000	83.458862	-171.3761
6300.000000	82.919189	-170.1288
6500.000000	82.290009	-167.7799
6700.000000	81.782974	-164.8549
6900.000000	81.401657	-161.5427
7100.000000	81.167618	-157.9477
7300.000000	81.105804	-154.4756
7500.000000	81.184288	-151.3082
7750.000000	81.504456	-147.9115
8000.000000	82.094177	-145.7154
8250.000000	82.947929	-145.5811
8500.000000	83.994644	-148.7177
8750.000000	84.985535	-156.5496
9000.000000	85.416382	-169.1307
9250.000000	84.867470	177.0334
9500.000000	83.534164	166.3997
9750.000000	81.928535	160.3207
10000.000000	80.429802	157.8337
10300.000000	78.954529	157.6194
10600.000000	77.869453	158.9704
10900.000000	77.163376	160.8557
11200.000000	76.831573	162.6154
11500.000000	76.910751	163.4186
11800.000000	77.288223	161.9391
12200.000000	78.155510	157.0238
12500.000000	79.273697	148.5606
12800.000000	80.277512	132.0899
13200.000000	79.762962	100.8243
13600.000000	76.999290	74.7689
14000.000000	73.702042	58.7015
14500.000000	70.181061	46.4799
15000.000000	67.636314	35.6474
15500.000000	65.884804	23.0888
16000.000000	64.872200	6.6987
16500.000000	64.590950	-15.2957
17000.000000	64.924797	-44.7675
17500.000000	65.642235	-83.9748
18000.000000	66.186127	-134.6135
18500.000000	65.982277	164.6457
19000.000000	64.982300	95.0416
19500.000000	63.062630	13.3873
