* Measurement data measured by REW V5.20
* Source: Headset (USB-C to 3.5mm Headphone Jack Adapter), MICROPHONE (Master Volume), R, volume: 0.260
* Format: 256k Log Swept Sine, 1 sweep at -6.0 dBFS with no timing reference
* Dated: Sep 20, 2021 4:45:13 PM
* REW Settings:
*  C-weighting compensation: Off
*  Target level: 75.0 dB
* Note: ; 
* Measurement: Falcon Pro L
* Smoothing: 1/48 octave
* Frequency Step: 1/24 octave
* Start Frequency: 20.600 Hz
*
* Freq(Hz)	SPL(dB)	Phase(degrees)
20.600000	84.440033	-85.3819
21.200001	84.624718	-87.1961
21.799999	84.801804	-89.0585
22.400000	84.969818	-91.0446
23.000000	85.115143	-92.9543
23.600000	85.255264	-94.5674
24.299999	85.439041	-96.2001
25.000000	85.622932	-97.9289
25.799999	85.772606	-100.1275
26.500000	85.847382	-101.9568
27.200001	85.919968	-103.4746
28.000000	86.051849	-105.0373
29.000000	86.214020	-107.3141
30.000000	86.287483	-109.5237
30.700001	86.349060	-110.8580
31.500000	86.444450	-112.4158
32.500000	86.550613	-114.2643
33.500000	86.640594	-115.9849
34.500000	86.697197	-117.6622
35.500000	86.775528	-119.2511
36.500000	86.844612	-121.0524
37.500000	86.890343	-122.5626
38.700001	86.987373	-124.3960
40.000000	87.037605	-126.1226
41.200001	87.112717	-127.7912
42.500000	87.137184	-129.5606
43.700001	87.203537	-130.8612
45.000000	87.256058	-132.3468
46.200001	87.304001	-133.8431
47.500000	87.339691	-135.2178
48.700001	87.364700	-136.4025
50.000000	87.392761	-137.7230
51.500000	87.441383	-139.1702
53.000000	87.456558	-140.5444
54.500000	87.497673	-141.8877
56.000000	87.554405	-143.1561
58.000000	87.547134	-144.7794
60.000000	87.604446	-146.1968
61.500000	87.600479	-147.2968
63.000000	87.605934	-148.3450
65.000000	87.622482	-149.6825
67.000000	87.655495	-150.8827
69.000000	87.650726	-152.1481
71.000000	87.664116	-153.3408
73.000000	87.661949	-154.4382
75.000000	87.663895	-155.5266
77.500000	87.663338	-156.7975
80.000000	87.651474	-158.0537
82.500000	87.668808	-159.1982
85.000000	87.650269	-160.4143
87.500000	87.654930	-161.4797
90.000000	87.634911	-162.3150
92.500000	87.626289	-163.2835
95.000000	87.606720	-164.2461
97.500000	87.594315	-165.1729
100.000000	87.587402	-165.9436
103.000000	87.572968	-166.9767
106.000000	87.547951	-167.9583
109.000000	87.530937	-168.9427
112.000000	87.517494	-169.7516
115.000000	87.502831	-170.6589
118.000000	87.478127	-171.4801
122.000000	87.451317	-172.5181
125.000000	87.432320	-173.2215
128.000000	87.418701	-173.9281
132.000000	87.386421	-174.8741
136.000000	87.356506	-175.7073
140.000000	87.325333	-176.5411
145.000000	87.273262	-177.5321
150.000000	87.228912	-178.4904
155.000000	87.189430	-179.3851
160.000000	87.146011	179.8817
165.000000	87.085747	179.0082
170.000000	87.033897	178.1850
175.000000	86.982536	177.3549
180.000000	86.942780	177.0245
185.000000	86.863518	176.0910
190.000000	86.805519	175.4302
195.000000	86.754135	174.8354
200.000000	86.708412	174.1947
206.000000	86.636612	173.6133
212.000000	86.553566	172.8837
218.000000	86.475746	172.3250
224.000000	86.404137	171.7934
230.000000	86.323410	171.2233
236.000000	86.252762	170.7453
243.000000	86.161789	170.1721
250.000000	86.076401	169.6047
258.000000	85.970352	169.0822
265.000000	85.883453	168.6141
272.000000	85.789406	168.1406
280.000000	85.685738	167.7492
290.000000	85.556381	167.2233
300.000000	85.435974	166.7247
307.000000	85.342430	166.4597
315.000000	85.229355	166.1939
325.000000	85.108963	165.7863
335.000000	84.983383	165.5083
345.000000	84.847519	165.2648
355.000000	84.729485	165.0256
365.000000	84.601059	164.8517
375.000000	84.478630	164.7003
387.000000	84.331543	164.5533
400.000000	84.168587	164.4822
412.000000	84.023994	164.4338
425.000000	83.871094	164.4296
437.000000	83.736465	164.4787
450.000000	83.587959	164.5581
462.000000	83.449127	164.6704
475.000000	83.307213	164.8326
487.000000	83.172531	165.0327
500.000000	83.035507	165.2671
515.000000	82.872673	165.5539
530.000000	82.717087	165.9243
545.000000	82.568886	166.3380
560.000000	82.420021	166.7637
580.000000	82.227982	167.4263
600.000000	82.039902	168.1601
615.000000	81.908012	168.7194
630.000000	81.776253	169.3396
650.000000	81.607849	170.2277
670.000000	81.446381	171.1825
690.000000	81.291504	172.1752
710.000000	81.147614	173.2274
730.000000	81.012367	174.3426
750.000000	80.880508	175.5204
775.000000	80.734985	177.1158
800.000000	80.611473	178.7065
825.000000	80.510895	-179.6106
850.000000	80.423294	-177.9177
875.000000	80.358284	-176.1914
900.000000	80.313507	-174.4556
925.000000	80.289001	-172.7092
950.000000	80.287796	-170.9956
975.000000	80.306480	-169.3361
1000.000000	80.344620	-167.7188
1030.000000	80.409554	-165.8961
1060.000000	80.490906	-164.1941
1090.000000	80.589485	-162.6398
1120.000000	80.691231	-161.2273
1150.000000	80.799873	-159.9407
1180.000000	80.903755	-158.7763
1220.000000	81.040558	-157.3563
1250.000000	81.134567	-156.3593
1280.000000	81.225639	-155.4178
1320.000000	81.336578	-154.1712
1360.000000	81.441635	-152.9487
1400.000000	81.544121	-151.6754
1450.000000	81.679062	-150.0410
1500.000000	81.828644	-148.3361
1550.000000	81.998352	-146.6082
1600.000000	82.201889	-144.8468
1650.000000	82.443703	-143.1847
1700.000000	82.726746	-141.6544
1750.000000	83.042030	-140.3672
1800.000000	83.387100	-139.4160
1850.000000	83.741776	-138.8713
1900.000000	84.093071	-138.7243
1950.000000	84.415443	-138.9429
2000.000000	84.700500	-139.4457
2060.000000	84.985016	-140.2657
2120.000000	85.206367	-141.2053
2180.000000	85.376228	-142.1016
2240.000000	85.507523	-142.9364
2300.000000	85.608810	-143.6618
2360.000000	85.690010	-144.2702
2430.000000	85.769196	-144.8758
2500.000000	85.835846	-145.3792
2580.000000	85.903633	-145.8460
2650.000000	85.955154	-146.1851
2720.000000	86.002937	-146.4868
2800.000000	86.051842	-146.7825
2900.000000	86.106682	-147.0906
3000.000000	86.159843	-147.3289
3070.000000	86.193062	-147.4658
3150.000000	86.231812	-147.6093
3250.000000	86.281662	-147.7477
3350.000000	86.332817	-147.8738
3450.000000	86.386436	-147.9938
3550.000000	86.443748	-148.1403
3650.000000	86.505493	-148.3081
3750.000000	86.569389	-148.5187
3870.000000	86.651550	-148.8497
4000.000000	86.744186	-149.3437
4120.000000	86.830986	-149.9850
4250.000000	86.912163	-150.9385
4370.000000	86.940422	-152.1799
4500.000000	86.790413	-153.1371
4620.000000	86.890190	-152.1899
4750.000000	87.146446	-153.8803
4870.000000	87.201614	-156.0426
5000.000000	87.162338	-158.4559
5150.000000	87.010353	-161.2940
5300.000000	86.743286	-164.0292
5450.000000	86.365303	-166.4604
5600.000000	85.898819	-168.3900
5800.000000	85.184036	-169.9420
6000.000000	84.436394	-170.2622
6150.000000	83.886620	-169.7424
6300.000000	83.373909	-168.6523
6500.000000	82.771347	-166.4576
6700.000000	82.283569	-163.5750
6900.000000	81.945274	-160.2119
7100.000000	81.789429	-156.6803
7300.000000	81.803749	-153.5132
7500.000000	81.940086	-150.7620
7750.000000	82.323242	-147.8996
8000.000000	82.980484	-146.3637
8250.000000	83.906746	-147.1913
8500.000000	84.997940	-151.8755
8750.000000	85.897308	-161.9307
9000.000000	85.983437	-176.4170
9250.000000	84.959946	169.7248
9500.000000	83.285545	160.6783
9750.000000	81.546692	156.5074
10000.000000	80.034935	155.3148
10300.000000	78.553345	156.0500
10600.000000	77.437729	158.1097
10900.000000	76.683075	160.7290
11200.000000	76.296097	163.3497
11500.000000	76.295700	165.1444
11800.000000	76.638741	165.2536
12200.000000	77.528328	161.8784
12500.000000	78.497284	155.5695
12800.000000	79.578644	144.1586
13200.000000	80.351082	118.6527
13600.000000	79.020271	88.0272
14000.000000	76.080582	65.3655
14500.000000	72.469666	48.4741
15000.000000	69.780327	36.0252
15500.000000	68.042068	22.4153
16000.000000	67.007271	5.2252
16500.000000	66.717155	-16.9070
17000.000000	67.144058	-46.5612
17500.000000	68.022301	-87.1758
18000.000000	68.569160	-141.2267
18500.000000	67.994331	154.1205
19000.000000	66.425652	82.4009
19500.000000	64.090622	-0.2427
