* Measurement data measured by REW V5.19
* Source: Microphone (4- USB Sound Device        ), no input selected, R, volume: no control
* Format: 1M Log Swept Sine, 1 sweep at -20.0 dBFS  With no timing reference
* Dated: Jun 21, 2019 9:06:07 PM
* REW Settings:
*  C-weighting compensation: Off
*  Target level: 75.0 dB
* Note: ; 
* Measurement: CA Fibae 7 - R
* Smoothing: 1/48 octave
* Frequency Step: 1/24 octave
* Start Frequency: 20.000 Hz
*
* Freq(Hz)	SPL(dB)	Phase(degrees)
20.000000	71.749008	-167.5967
20.600000	71.759407	-168.7560
21.200001	71.701569	-168.8236
21.799999	71.768341	-168.4249
22.400000	71.923279	-168.9621
23.000000	71.947830	-170.4337
23.600000	71.809235	-171.3035
24.299999	71.766319	-170.9151
25.000000	71.976822	-171.3498
25.799999	72.096161	-173.5581
26.500000	72.052910	-174.8587
27.200001	72.080399	-175.6024
28.000000	72.124588	-176.5491
29.000000	72.280563	-177.0841
30.000000	72.497536	-179.6870
30.700001	72.338478	178.4608
31.500000	72.160278	178.3601
32.500000	72.156937	177.7431
33.500000	72.046646	177.5565
34.500000	72.223022	176.6696
35.500000	71.990936	174.4630
36.500000	71.944733	176.2750
37.500000	72.457916	174.5103
38.700001	72.335899	170.3286
40.000000	72.189247	168.9121
41.200001	72.087349	168.3594
42.500000	72.201775	167.9750
43.700001	72.263733	167.1630
45.000000	72.218079	166.3840
46.200001	72.273216	166.7672
47.500000	72.278450	165.1923
48.700001	72.159134	165.3772
50.000000	72.281265	164.2676
51.500000	72.189354	162.3439
53.000000	72.214317	161.5826
54.500000	72.300224	160.5395
56.000000	72.308655	159.7605
58.000000	72.311066	159.2832
60.000000	72.497055	162.3204
61.500000	72.525681	157.0909
63.000000	72.277771	156.1247
65.000000	72.246811	154.1221
67.000000	72.324196	152.5062
69.000000	72.352676	151.7973
71.000000	72.352905	150.9572
73.000000	72.317352	149.5687
75.000000	72.299606	148.5264
77.500000	72.322815	146.8519
80.000000	72.336945	145.5784
82.500000	72.326675	144.0884
85.000000	72.322250	142.5415
87.500000	72.317329	141.2187
90.000000	72.318329	140.4265
92.500000	72.355621	138.5349
95.000000	72.329926	137.0329
97.500000	72.297791	135.8173
100.000000	72.341370	134.6305
103.000000	72.329613	132.8081
106.000000	72.291588	130.9039
109.000000	72.253700	129.6539
112.000000	72.229645	128.0083
115.000000	72.232407	126.5811
118.000000	72.186111	125.2675
122.000000	72.178612	122.8974
125.000000	72.135078	121.6604
128.000000	72.108643	120.2480
132.000000	72.046875	118.2990
136.000000	72.022888	116.6465
140.000000	71.989517	114.9080
145.000000	71.893402	112.4882
150.000000	71.812225	110.5430
155.000000	71.750153	108.3542
160.000000	71.677071	106.3670
165.000000	71.641174	104.3655
170.000000	71.577927	102.2935
175.000000	71.466446	100.8893
180.000000	71.311630	97.1841
185.000000	71.400856	96.8643
190.000000	71.263268	95.2285
195.000000	71.222382	93.5733
200.000000	71.160934	91.8254
206.000000	71.072281	89.8451
212.000000	70.971436	88.1827
218.000000	70.844452	86.4722
224.000000	70.747849	85.1851
230.000000	70.678246	83.6547
236.000000	70.708908	82.5962
243.000000	70.722771	81.0320
250.000000	70.742172	78.6607
258.000000	70.727379	76.2006
265.000000	70.681595	73.9933
272.000000	70.586800	71.9941
280.000000	70.532806	70.2611
290.000000	70.397034	67.5781
300.000000	70.251129	66.1865
307.000000	70.281372	63.2802
315.000000	70.217316	61.8635
325.000000	70.143791	59.3631
335.000000	70.065552	57.4685
345.000000	69.972969	55.6977
355.000000	69.893478	53.4461
365.000000	69.829147	51.6758
375.000000	69.773170	50.4120
387.000000	69.686462	48.0607
400.000000	69.599037	45.7008
412.000000	69.545944	44.2292
425.000000	69.458839	42.5909
437.000000	69.397331	40.7502
450.000000	69.292542	39.0003
462.000000	69.250053	37.5915
475.000000	69.243256	35.5370
487.000000	69.083420	35.0381
500.000000	69.042915	33.2597
515.000000	68.937935	31.9470
530.000000	68.871979	30.8596
545.000000	68.837479	29.0863
560.000000	68.751434	28.0879
580.000000	68.656410	26.5920
600.000000	68.608368	25.5466
615.000000	68.586960	24.3944
630.000000	68.611290	23.7632
650.000000	68.572701	22.3818
670.000000	68.525818	21.2690
690.000000	68.519455	20.5280
710.000000	68.441109	19.9551
730.000000	68.340897	19.1304
750.000000	68.325455	18.4764
775.000000	68.372284	18.1278
800.000000	68.258041	17.9460
825.000000	68.294228	18.0033
850.000000	68.312744	18.0839
875.000000	68.364365	18.0776
900.000000	68.404053	18.3448
925.000000	68.483513	18.6946
950.000000	68.587410	19.5194
975.000000	68.770737	20.2424
1000.000000	68.904343	21.8701
1030.000000	69.183655	21.2931
1060.000000	69.482559	21.7656
1090.000000	69.757339	22.3616
1120.000000	70.149963	22.5745
1150.000000	70.532898	22.3312
1180.000000	70.918129	22.0300
1220.000000	71.419029	21.1333
1250.000000	71.769287	20.5056
1280.000000	72.062660	19.3430
1320.000000	72.488853	17.9327
1360.000000	72.859634	16.4298
1400.000000	73.201393	15.1642
1450.000000	73.576935	13.4087
1500.000000	73.981857	11.7088
1550.000000	74.311745	10.1959
1600.000000	74.652214	9.0741
1650.000000	75.027199	7.7875
1700.000000	75.425133	6.7254
1750.000000	75.797173	5.5887
1800.000000	76.193062	4.1889
1850.000000	76.630638	2.9032
1900.000000	77.062798	1.4821
1950.000000	77.508347	-0.1117
2000.000000	77.939392	-1.9262
2060.000000	78.513123	-4.6107
2120.000000	79.063148	-7.6827
2180.000000	79.559898	-11.2906
2240.000000	80.004921	-15.4908
2300.000000	80.324654	-20.1945
2360.000000	80.533356	-24.9490
2430.000000	80.601807	-30.5919
2500.000000	80.493454	-35.7053
2580.000000	80.201492	-40.4453
2650.000000	79.887199	-43.3680
2720.000000	79.603439	-45.2071
2800.000000	79.362518	-46.8447
2900.000000	79.117416	-48.4440
3000.000000	78.885605	-49.2304
3070.000000	78.763123	-49.5778
3150.000000	78.698074	-49.4316
3250.000000	78.736313	-49.0537
3350.000000	78.907570	-48.9558
3450.000000	79.167229	-49.3569
3550.000000	79.488747	-50.4951
3650.000000	79.861473	-52.6310
3750.000000	80.218674	-56.2204
3870.000000	80.460594	-62.6462
4000.000000	80.180832	-72.0011
4120.000000	79.128830	-80.7932
4250.000000	77.217728	-85.6974
4370.000000	75.263268	-84.3081
4500.000000	73.378342	-77.4595
4620.000000	72.073975	-67.1235
4750.000000	71.478027	-53.0413
4870.000000	71.854095	-40.5564
5000.000000	72.990479	-32.0266
5150.000000	74.218727	-29.8688
5300.000000	74.783859	-32.2177
5450.000000	74.552010	-34.6384
5600.000000	73.842377	-34.7660
5800.000000	72.655441	-30.0536
6000.000000	71.696236	-22.4301
6150.000000	71.085609	-15.6849
6300.000000	70.459312	-7.3577
6500.000000	70.102768	6.5950
6700.000000	70.326752	19.9079
6900.000000	71.164268	32.1845
7100.000000	72.547066	40.7162
7300.000000	73.826920	41.4294
7500.000000	74.052315	39.6326
7750.000000	73.515869	36.8603
8000.000000	72.111710	42.4512
8250.000000	71.914246	52.5358
8500.000000	71.993561	51.0366
8750.000000	69.645851	48.2321
9000.000000	66.389252	60.6215
9250.000000	64.253410	82.5542
9500.000000	63.332146	105.0844
9750.000000	63.082809	126.5370
10000.000000	63.351028	145.8362
10300.000000	63.886566	163.9948
10600.000000	64.063324	178.5532
10900.000000	63.535378	-166.6133
11200.000000	63.070747	-148.5210
11500.000000	62.820404	-128.3471
11800.000000	62.856480	-108.4869
12200.000000	63.459312	-87.1533
12500.000000	63.243530	-74.7870
12800.000000	62.275154	-59.3919
13200.000000	60.854912	-31.0843
13600.000000	60.843140	6.4199
14000.000000	63.405102	37.6460
14500.000000	66.027977	58.1123
15000.000000	67.965836	72.7759
15500.000000	69.782166	76.2032
16000.000000	67.501854	68.7961
16500.000000	63.797691	94.0303
17000.000000	62.096062	118.1511
17500.000000	60.971561	145.1917
18000.000000	60.915928	167.4761
18500.000000	61.035587	176.5709
19000.000000	58.894150	172.7746
19500.000000	55.174828	179.7630
