* Measurement data measured by REW V5.30.9
* Source: Headset (USB-C to 3.5mm Headphone Jack Adapter), MICROPHONE (Master Volume), R, volume: 0.250
* Format: 512k Log Swept Sine, 1 sweep at -12.0 dBFS with no timing reference
* Dated: Jul 23, 2024 8:28:53 PM
* REW Settings:
*  C-weighting compensation: Off
*  Target level: 75.0 dB
* Note: ; 
* Measurement: Galaxy Buds 3 Pro L
* Smoothing: 1/24 octave
* Frequency Step: 96 ppo
* Start Frequency: 20.141602 Hz
*
* Freq(Hz) SPL(dB) Phase(degrees)
20.141602 81.882 -45.6986
20.287556 81.905 -45.7515
20.434568 81.939 -45.8180
20.582645 81.979 -45.8802
20.731796 82.023 -45.9339
20.882027 82.069 -45.9851
21.033346 82.115 -46.0426
21.185762 82.160 -46.1174
21.339283 82.201 -46.2211
21.493916 82.239 -46.3620
21.649670 82.271 -46.5469
21.806553 82.296 -46.7783
21.964573 82.315 -47.0526
22.123737 82.326 -47.3624
22.284056 82.331 -47.6941
22.445536 82.332 -48.0290
22.608185 82.329 -48.3478
22.772013 82.324 -48.6273
22.937029 82.321 -48.8489
23.103241 82.319 -48.9962
23.270657 82.320 -49.0600
23.439285 82.326 -49.0404
23.609137 82.335 -48.9444
23.780218 82.349 -48.7890
23.952539 82.365 -48.5962
24.126110 82.383 -48.3900
24.300938 82.402 -48.1960
24.477032 82.421 -48.0331
24.654402 82.441 -47.9164
24.833057 82.462 -47.8514
25.013008 82.485 -47.8367
25.194263 82.511 -47.8648
25.376831 82.540 -47.9234
25.560722 82.574 -48.0012
25.745945 82.612 -48.0880
25.932510 82.653 -48.1797
26.120428 82.696 -48.2773
26.309708 82.737 -48.3865
26.500359 82.775 -48.5161
26.692390 82.805 -48.6729
26.885815 82.827 -48.8604
27.080641 82.838 -49.0739
27.276878 82.837 -49.3014
27.474539 82.825 -49.5238
27.673630 82.802 -49.7177
27.874165 82.771 -49.8602
28.076153 82.734 -49.9342
28.279604 82.694 -49.9326
28.484529 82.655 -49.8607
28.690941 82.619 -49.7376
28.898848 82.589 -49.5893
29.108261 82.567 -49.4472
29.319191 82.554 -49.3362
29.531651 82.548 -49.2723
29.745649 82.549 -49.2565
29.961199 82.553 -49.2778
30.178310 82.558 -49.3139
30.396996 82.562 -49.3416
30.617264 82.561 -49.3404
30.839128 82.555 -49.3001
31.062601 82.546 -49.2216
31.287693 82.533 -49.1175
31.514416 82.520 -49.0056
31.742783 82.510 -48.9049
31.972803 82.503 -48.8287
32.204491 82.499 -48.7808
32.437859 82.498 -48.7543
32.672916 82.495 -48.7346
32.909679 82.488 -48.7044
33.148155 82.474 -48.6477
33.388359 82.453 -48.5560
33.630306 82.425 -48.4294
33.874004 82.395 -48.2773
34.119469 82.366 -48.1147
34.366711 82.344 -47.9590
34.615746 82.331 -47.8259
34.866585 82.328 -47.7235
35.119244 82.332 -47.6508
35.373734 82.339 -47.5971
35.630066 82.343 -47.5443
35.888256 82.341 -47.4729
36.148315 82.328 -47.3652
36.410259 82.307 -47.2130
36.674103 82.279 -47.0200
36.939857 82.251 -46.8014
37.207539 82.226 -46.5813
37.477161 82.211 -46.3826
37.748737 82.206 -46.2190
38.022282 82.210 -46.0905
38.297806 82.217 -45.9821
38.575329 82.220 -45.8719
38.854862 82.213 -45.7395
39.136421 82.194 -45.5732
39.420021 82.163 -45.3735
39.705673 82.127 -45.1497
39.993397 82.095 -44.9131
40.283207 82.076 -44.6717
40.575115 82.072 -44.4279
40.869141 82.083 -44.1811
41.165295 82.099 -43.9324
41.463596 82.110 -43.6861
41.764057 82.109 -43.4462
42.066696 82.093 -43.2108
42.371529 82.069 -42.9684
42.678570 82.044 -42.7039
42.987835 82.027 -42.4125
43.299343 82.019 -42.1113
43.613110 82.017 -41.8384
43.929150 82.010 -41.6364
44.247478 81.990 -41.5210
44.568115 81.955 -41.4546
44.891075 81.910 -41.3510
45.216373 81.865 -41.1113
45.544029 81.830 -40.6771
45.874062 81.810 -40.0717
46.206486 81.805 -39.3998
46.541317 81.806 -38.7966
46.878574 81.807 -38.3539
47.218277 81.804 -38.0687
47.560440 81.796 -37.8525
47.905083 81.781 -37.5929
48.252224 81.758 -37.2253
48.601879 81.724 -36.7643
48.954067 81.676 -36.2789
49.308807 81.619 -35.8350
49.666119 81.565 -35.4510
50.026020 81.527 -35.0968
50.388531 81.510 -34.7352
50.753666 81.512 -34.3622
51.121449 81.520 -34.0096
51.491894 81.521 -33.7068
51.865025 81.506 -33.4401
52.240860 81.480 -33.1520
52.619419 81.452 -32.7834
53.000721 81.427 -32.3235
53.384785 81.407 -31.8207
53.771633 81.384 -31.3389
54.161285 81.352 -30.9009
54.553761 81.313 -30.4692
54.949081 81.276 -29.9826
55.347263 81.248 -29.4135
55.748333 81.234 -28.7939
56.152309 81.227 -28.1892
56.559212 81.222 -27.6472
56.969063 81.214 -27.1749
57.381886 81.202 -26.7550
57.797699 81.186 -26.3753
58.216526 81.156 -26.0306
58.638386 81.107 -25.6975
59.063305 81.041 -25.3166
59.491302 80.978 -24.8156
59.922401 80.942 -24.1674
60.356625 80.945 -23.4315
60.793995 80.971 -22.7283
61.234531 80.990 -22.1599
61.678261 80.980 -21.7476
62.125206 80.942 -21.4253
62.575390 80.896 -21.0790
63.028835 80.857 -20.6066
63.485569 80.831 -19.9651
63.945610 80.809 -19.1897
64.408989 80.791 -18.3813
64.875725 80.783 -17.6588
65.345840 80.788 -17.0849
65.819366 80.794 -16.6115
66.296318 80.781 -16.1016
66.776726 80.740 -15.4349
67.260620 80.682 -14.6150
67.748016 80.628 -13.7873
68.238945 80.589 -13.1311
68.733429 80.560 -12.7159
69.231499 80.536 -12.4523
69.733177 80.517 -12.1683
70.238495 80.505 -11.7269
70.747475 80.501 -11.0967
71.260139 80.500 -10.3376
71.776520 80.495 -9.5373
72.296638 80.485 -8.7486
72.820526 80.469 -7.9722
73.348213 80.448 -7.1908
73.879723 80.425 -6.4091
74.415085 80.400 -5.6499
74.954330 80.369 -4.9207
75.497482 80.332 -4.2128
76.044571 80.293 -3.5395
76.595619 80.258 -2.9363
77.150665 80.233 -2.3961
77.709732 80.216 -1.8345
78.272850 80.201 -1.1574
78.840050 80.177 -0.3544
79.411354 80.143 0.4952
79.986801 80.108 1.2871
80.566422 80.085 1.9544
81.150238 80.075 2.5044
81.738289 80.065 3.0309
82.330597 80.050 3.6568
82.927200 80.040 4.4275
83.528122 80.035 5.2783
84.133400 80.019 6.1319
84.743065 79.978 6.9842
85.357147 79.921 7.8560
85.975677 79.872 8.7259
86.598694 79.835 9.5612
87.226227 79.798 10.3763
87.858307 79.751 11.2033
88.494965 79.705 12.0300
89.136238 79.679 12.8073
89.782158 79.672 13.5085
90.432755 79.666 14.1677
91.088066 79.640 14.8687
91.748131 79.590 15.6795
92.412979 79.533 16.5795
93.082642 79.483 17.4680
93.757156 79.440 18.2664
94.436562 79.402 18.9886
95.120888 79.373 19.7052
95.810173 79.359 20.4752
96.504456 79.354 21.3215
97.203766 79.346 22.2425
97.908142 79.320 23.2268
98.617622 79.270 24.2405
99.332245 79.203 25.1985
100.052048 79.139 26.0164
100.777069 79.100 26.7518
101.507339 79.081 27.6131
102.242905 79.055 28.7241
102.983795 79.006 29.9493
103.730057 78.954 31.0429
104.481728 78.921 31.9016
105.238846 78.909 32.6143
106.001450 78.904 33.3499
106.769577 78.891 34.2236
107.543274 78.858 35.1880
108.322578 78.812 36.1095
109.107529 78.770 36.9780
109.898170 78.731 37.8914
110.694534 78.677 38.8635
111.496674 78.612 39.8394
112.304626 78.558 40.8401
113.118431 78.525 41.9194
113.938133 78.506 43.0339
114.763779 78.495 44.1068
115.595406 78.492 45.1434
116.433060 78.485 46.1523
117.276779 78.462 47.1290
118.126617 78.431 48.1621
118.982613 78.398 49.2964
119.844810 78.359 50.4117
120.713257 78.313 51.4266
121.587997 78.266 52.3911
122.469070 78.226 53.3733
123.356529 78.200 54.4232
124.250420 78.186 55.5613
125.150787 78.174 56.7594
126.057678 78.155 57.9534
126.971146 78.131 59.0886
127.891228 78.103 60.1821
128.817978 78.068 61.2724
129.751450 78.023 62.3311
130.691681 77.967 63.3460
131.638733 77.906 64.3972
132.592636 77.851 65.5502
133.553452 77.806 66.7837
134.521240 77.771 68.0632
135.496033 77.739 69.4010
136.477890 77.712 70.7886
137.466858 77.687 72.1222
138.462997 77.662 73.3176
139.466354 77.630 74.4471
140.476990 77.581 75.6137
141.494949 77.518 76.7986
142.520279 77.458 77.9834
143.553040 77.415 79.1985
144.593277 77.387 80.4263
145.641052 77.365 81.6609
146.696426 77.345 82.9060
147.759445 77.331 84.1316
148.830170 77.322 85.3491
149.908661 77.308 86.6004
150.994965 77.279 87.8938
152.089142 77.231 89.1935
153.191238 77.172 90.4803
154.301331 77.112 91.7959
155.419464 77.060 93.1775
156.545700 77.021 94.6187
157.680099 76.994 96.1058
158.822708 76.974 97.6107
159.973602 76.947 99.0633
161.132843 76.910 100.4507
162.300476 76.869 101.8235
163.476578 76.831 103.1896
164.661194 76.803 104.5018
165.854401 76.786 105.6841
167.056244 76.773 106.7509
168.266800 76.754 107.8568
169.486130 76.726 109.1204
170.714294 76.701 110.5236
171.951355 76.686 112.0172
173.197388 76.672 113.5961
174.452454 76.646 115.2114
175.716614 76.608 116.7969
176.989929 76.566 118.3411
178.272476 76.522 119.8308
179.564316 76.476 121.2239
180.865509 76.435 122.5425
182.176132 76.405 123.8575
183.496262 76.380 125.2213
184.825958 76.348 126.6587
186.165283 76.308 128.1892
187.514313 76.279 129.8060
188.873123 76.269 131.4572
190.241776 76.263 133.0570
191.620346 76.242 134.5883
193.008911 76.209 136.0967
194.407532 76.175 137.5785
195.816284 76.146 138.9737
197.235245 76.126 140.2531
198.664490 76.115 141.4954
200.104095 76.111 142.8422
201.554138 76.104 144.3460
203.014679 76.083 145.9595
204.485809 76.052 147.6108
205.967590 76.021 149.2496
207.460114 75.997 150.8613
208.963455 75.975 152.4176
210.477692 75.947 153.9135
212.002899 75.922 155.3963
213.539154 75.905 156.8959
215.086548 75.895 158.4062
216.645157 75.882 159.9365
218.215057 75.864 161.4780
219.796341 75.846 163.0246
221.389069 75.829 164.5955
222.993347 75.813 166.1734
224.609253 75.797 167.7511
226.236862 75.782 169.3332
227.876266 75.764 170.9140
229.527557 75.741 172.4984
231.190811 75.713 174.0700
232.866119 75.688 175.6020
234.553558 75.666 177.1013
236.253235 75.645 178.5991
237.965225 75.626 -179.8990
239.689621 75.618 -178.3888
241.426514 75.620 -176.8764
243.175995 75.619 -175.3658
244.938141 75.611 -173.8300
246.713058 75.595 -172.2424
248.500839 75.574 -170.6201
250.301575 75.551 -169.0123
252.115356 75.530 -167.4376
253.942291 75.513 -165.8619
255.782455 75.495 -164.2690
257.635956 75.477 -162.6799
259.502899 75.459 -161.1154
261.383362 75.443 -159.5491
263.277466 75.428 -157.9570
265.185272 75.411 -156.3699
267.106903 75.394 -154.8055
269.042480 75.379 -153.2328
270.992065 75.368 -151.6308
272.955780 75.358 -150.0266
274.933716 75.347 -148.4403
276.925995 75.334 -146.8527
278.932709 75.323 -145.2559
280.953979 75.311 -143.6700
282.989899 75.295 -142.1201
285.040558 75.276 -140.5945
287.106079 75.254 -139.0419
289.186554 75.232 -137.4425
291.282104 75.209 -135.8288
293.392853 75.184 -134.2437
295.518890 75.159 -132.6460
297.660339 75.137 -130.9590
299.817322 75.117 -129.2074
301.989929 75.092 -127.4726
304.178284 75.065 -125.7554
306.382477 75.046 -124.0410
308.602661 75.040 -122.3501
310.838928 75.041 -120.7173
313.091400 75.041 -119.1312
315.360199 75.035 -117.4961
317.645416 75.027 -115.7559
319.947205 75.024 -113.9808
322.265686 75.024 -112.2828
324.600952 75.027 -110.6954
326.953156 75.033 -109.1604
329.322388 75.043 -107.6226
331.708801 75.055 -106.0678
334.112488 75.064 -104.5020
336.533600 75.068 -102.9200
338.972260 75.069 -101.3107
341.428589 75.064 -99.6750
343.902710 75.050 -98.0123
346.394775 75.028 -96.3191
348.904907 75.006 -94.6270
351.433228 74.992 -92.9885
353.979858 74.990 -91.4029
356.544952 74.994 -89.8232
359.128632 74.995 -88.2061
361.731018 74.988 -86.5724
364.352264 74.980 -84.9538
366.992523 74.974 -83.3363
369.651917 74.971 -81.7253
372.330566 74.967 -80.1537
375.028625 74.966 -78.6404
377.746246 74.972 -77.1665
380.483551 74.980 -75.7078
383.240692 74.988 -74.2493
386.017822 74.990 -72.7618
388.815063 74.986 -71.2115
391.632568 74.977 -69.5956
394.470490 74.965 -67.9550
397.328979 74.956 -66.3251
400.208191 74.954 -64.7210
403.108276 74.958 -63.1822
406.029358 74.967 -61.7220
408.971619 74.975 -60.2935
411.935181 74.978 -58.8480
414.920227 74.974 -57.3856
417.926910 74.967 -55.9276
420.955383 74.958 -54.4705
424.005798 74.948 -53.0023
427.078308 74.938 -51.5375
430.173096 74.931 -50.0828
433.290314 74.935 -48.6354
436.430115 74.951 -47.2268
439.592682 74.974 -45.8841
442.778137 74.990 -44.5777
445.986694 74.994 -43.2635
449.218506 74.990 -41.9073
452.473724 74.985 -40.5099
455.752533 74.984 -39.0983
459.055115 74.990 -37.6942
462.381622 75.000 -36.3234
465.732239 75.007 -34.9742
469.107117 75.006 -33.6257
472.506470 74.997 -32.2844
475.930450 74.990 -30.9575
479.379242 74.991 -29.6226
482.853027 74.996 -28.2639
486.351990 74.998 -26.9175
489.876282 74.997 -25.6290
493.426117 74.996 -24.3876
497.001678 74.998 -23.1559
500.603149 75.002 -21.9240
504.230713 75.006 -20.6710
507.884583 75.008 -19.3680
511.564911 75.009 -18.0566
515.271912 75.009 -16.8022
519.005798 75.008 -15.6299
522.766724 75.006 -14.5162
526.554932 75.000 -13.4085
530.370544 74.991 -12.2842
534.213806 74.981 -11.1571
538.084961 74.974 -10.0255
541.984131 74.970 -8.8881
545.911560 74.965 -7.7590
549.867432 74.956 -6.6531
553.851990 74.949 -5.5674
557.865417 74.948 -4.4695
561.907959 74.950 -3.3308
565.979797 74.946 -2.1860
570.081116 74.934 -1.1135
574.212158 74.921 -0.1471
578.373108 74.914 0.7656
582.564209 74.915 1.6991
586.785706 74.918 2.6733
591.037781 74.917 3.6641
595.320679 74.910 4.6662
599.634644 74.897 5.6696
603.979858 74.884 6.6589
608.356567 74.873 7.6301
612.764954 74.866 8.5503
617.205322 74.858 9.4119
621.677856 74.846 10.2574
626.182800 74.831 11.1108
630.720398 74.815 11.9553
635.290833 74.800 12.7859
639.894409 74.793 13.5743
644.531372 74.792 14.3236
649.201904 74.791 15.0835
653.906311 74.785 15.8600
658.644775 74.768 16.6251
663.417603 74.737 17.3798
668.224976 74.694 18.1461
673.067200 74.647 18.9248
677.944519 74.603 19.6740
682.857178 74.563 20.3457
687.805420 74.524 20.9216
692.789551 74.490 21.4165
697.809814 74.473 21.9044
702.866455 74.475 22.4711
707.959717 74.484 23.1035
713.089905 74.493 23.7275
718.257263 74.503 24.3297
723.462036 74.515 24.9523
728.704529 74.524 25.5873
733.985046 74.527 26.1825
739.303833 74.526 26.7059
744.661133 74.524 27.1759
750.057251 74.523 27.6326
755.492493 74.519 28.0765
760.967102 74.507 28.4952
766.481384 74.490 28.8867
772.035645 74.474 29.2338
777.630127 74.462 29.5474
783.265137 74.450 29.8788
788.940979 74.439 30.2500
794.657959 74.430 30.6296
800.416382 74.423 30.9813
806.216553 74.414 31.2814
812.058716 74.399 31.5067
817.943237 74.379 31.6339
823.870361 74.362 31.6874
829.840454 74.356 31.7357
835.853821 74.359 31.8353
841.910767 74.366 31.9548
848.011597 74.374 32.0383
854.156616 74.382 32.0737
860.346191 74.389 32.0732
866.580627 74.395 32.0540
872.860229 74.400 32.0325
879.185364 74.404 31.9909
885.556274 74.407 31.8783
891.973389 74.410 31.6741
898.437012 74.414 31.4279
904.947449 74.418 31.1898
911.505066 74.423 30.9578
918.110229 74.429 30.7053
924.763245 74.438 30.4135
931.464478 74.451 30.0651
938.214233 74.470 29.6473
945.012939 74.491 29.1833
951.860901 74.514 28.7094
958.758484 74.536 28.2256
965.706055 74.555 27.7002
972.703979 74.574 27.1121
979.752563 74.596 26.4556
986.852234 74.621 25.7465
994.003357 74.645 25.0004
1001.206299 74.670 24.2227
1008.461426 74.702 23.4047
1015.769165 74.744 22.5363
1023.129822 74.785 21.6028
1030.543823 74.818 20.5951
1038.011597 74.845 19.5404
1045.533447 74.869 18.4647
1053.109863 74.892 17.3486
1060.741089 74.920 16.1631
1068.427612 74.955 14.9125
1076.169922 74.998 13.6029
1083.968262 75.049 12.2384
1091.823120 75.103 10.8062
1099.734863 75.155 9.2878
1107.703979 75.205 7.7031
1115.730835 75.253 6.0847
1123.815918 75.301 4.4315
1131.959595 75.349 2.7182
1140.162231 75.396 0.9382
1148.424316 75.442 -0.9111
1156.746216 75.489 -2.8353
1165.128418 75.540 -4.8313
1173.571411 75.591 -6.9104
1182.075562 75.641 -9.0880
1190.641357 75.691 -11.3284
1199.269287 75.740 -13.6039
1207.959717 75.789 -15.9311
1216.713135 75.837 -18.3130
1225.529907 75.881 -20.7383
1234.410645 75.921 -23.2204
1243.355713 75.962 -25.7849
1252.365601 76.008 -28.4367
1261.440796 76.057 -31.1780
1270.581665 76.106 -34.0194
1279.788818 76.159 -36.9479
1289.062744 76.214 -39.9439
1298.403809 76.268 -42.9889
1307.812622 76.323 -46.0703
1317.289551 76.378 -49.2064
1326.835205 76.433 -52.4446
1336.449951 76.487 -55.7937
1346.134399 76.543 -59.2364
1355.889038 76.603 -62.7661
1365.714355 76.663 -66.3825
1375.610840 76.723 -70.0765
1385.579102 76.783 -73.8283
1395.619629 76.841 -77.6420
1405.732910 76.899 -81.5486
1415.919434 76.960 -85.5639
1426.179810 77.027 -89.6882
1436.514526 77.097 -93.9114
1446.924072 77.163 -98.1980
1457.409058 77.226 -102.5454
1467.970093 77.285 -106.9859
1478.607666 77.343 -111.5399
1489.322266 77.398 -116.2080
1500.114502 77.454 -120.9721
1510.984985 77.512 -125.8058
1521.934204 77.572 -130.7229
1532.962769 77.636 -135.7552
1544.071289 77.707 -140.9185
1555.260254 77.786 -146.1902
1566.530273 77.867 -151.5372
1577.881958 77.944 -156.9489
1589.315918 78.012 -162.4341
1600.832764 78.072 -168.0357
1612.433105 78.128 -173.7770
1624.117432 78.186 -179.6468
1635.886475 78.248 174.3614
1647.740723 78.315 168.2559
1659.680908 78.388 162.0253
1671.707642 78.464 155.6851
1683.821533 78.540 149.2766
1696.023193 78.609 142.7579
1708.313232 78.670 136.0766
1720.692383 78.725 129.2782
1733.161255 78.778 122.4025
1745.720459 78.831 115.4144
1758.370728 78.889 108.2903
1771.112549 78.950 101.0302
1783.946777 79.012 93.6391
1796.874023 79.076 86.1467
1809.894897 79.143 78.5657
1823.010132 79.214 70.8408
1836.220459 79.286 62.9582
1849.526489 79.355 54.9630
1862.928955 79.415 46.8825
1876.428467 79.468 38.6898
1890.025879 79.518 30.3455
1903.721802 79.572 21.8533
1917.516968 79.634 13.2171
1931.412109 79.701 4.4546
1945.407959 79.767 -4.3994
1959.505127 79.818 -13.2635
1973.704468 79.835 -21.8414
1988.006714 79.825 -29.4881
2002.412598 79.835 -35.4830
2016.922852 79.913 -39.4216
2031.538330 80.052 -41.3739
2046.259644 80.197 -41.8869
2061.087646 80.315 -41.7038
2076.023193 80.404 -41.3018
2091.066895 80.477 -40.8265
2106.219727 80.542 -40.3032
2121.482178 80.606 -39.7554
2136.855225 80.679 -39.2066
2152.339844 80.764 -38.6804
2167.936523 80.853 -38.2012
2183.646240 80.940 -37.7817
2199.469727 81.020 -37.3981
2215.407959 81.089 -37.0365
2231.461670 81.142 -36.6826
2247.631836 81.183 -36.3025
2263.919189 81.224 -35.9198
2280.324463 81.272 -35.5852
2296.848633 81.330 -35.2990
2313.492432 81.393 -35.0315
2330.256836 81.456 -34.7705
2347.142822 81.517 -34.5065
2364.151123 81.574 -34.2587
2381.282715 81.627 -34.0737
2398.538574 81.676 -33.9270
2415.919434 81.717 -33.7519
2433.426270 81.748 -33.5583
2451.059814 81.774 -33.3798
2468.821289 81.802 -33.2177
2486.711426 81.830 -33.0536
2504.731201 81.854 -32.8599
2522.881592 81.871 -32.6415
2541.163330 81.878 -32.4624
2559.577637 81.877 -32.3369
2578.125488 81.872 -32.2078
2596.807617 81.861 -32.0379
2615.625244 81.841 -31.8388
2634.579102 81.812 -31.6020
2653.670410 81.775 -31.3030
2672.899902 81.728 -30.9584
2692.268799 81.674 -30.6251
2711.778076 81.620 -30.3274
2731.428711 81.571 -30.0278
2751.221680 81.527 -29.6656
2771.158203 81.486 -29.2264
2791.239258 81.438 -28.7284
2811.465820 81.377 -28.1772
2831.838867 81.301 -27.5661
2852.359619 81.215 -26.8846
2873.029053 81.126 -26.1571
2893.848145 81.044 -25.4198
2914.818115 80.970 -24.6361
2935.940186 80.908 -23.7385
2957.215332 80.859 -22.7469
2978.644531 80.823 -21.7284
3000.229004 80.795 -20.7016
3021.969971 80.767 -19.6753
3043.868408 80.739 -18.7359
3065.925537 80.709 -17.9357
3088.142578 80.672 -17.2094
3110.520508 80.618 -16.4740
3133.060547 80.548 -15.6834
3155.763916 80.471 -14.8239
3178.631836 80.400 -13.9328
3201.665527 80.334 -13.0131
3224.866211 80.263 -12.0047
3248.234863 80.183 -10.9132
3271.772949 80.100 -9.7735
3295.481445 80.025 -8.5874
3319.361816 79.957 -7.3838
3343.415283 79.889 -6.1852
3367.643066 79.819 -4.9689
3392.046387 79.750 -3.7177
3416.626465 79.690 -2.4346
3441.384766 79.640 -1.1260
3466.322510 79.598 0.2025
3491.440918 79.558 1.5613
3516.741455 79.518 2.9493
3542.225098 79.476 4.3630
3567.893555 79.433 5.8207
3593.748047 79.389 7.3243
3619.789795 79.352 8.8443
3646.020264 79.329 10.3418
3672.440918 79.314 11.8294
3699.052979 79.289 13.3925
3725.857910 79.251 15.0353
3752.856934 79.216 16.6832
3780.051758 79.193 18.3018
3807.443604 79.184 19.9076
3835.033936 79.183 21.5048
3862.824219 79.188 23.0977
3890.815918 79.204 24.6998
3919.010254 79.233 26.3108
3947.408936 79.271 27.9323
