* Measurement data measured by REW V5.20 Beta 15
* Source: Input device not selected, no input selected, R, volume: no control. Timing signal peak level -32.4 dBFS, measurement signal peak level -32.4 dBFS
* Format: 1M Log Swept Sine, 1 sweep at -20.0 dBFS  Using an acoustic timing reference
* Dated: Jul 21, 2019 9:07:31 PM
* REW Settings:
*  C-weighting compensation: Off
*  Target level: 75.0 dB
* Note: ; Delay -0.702 ms (-241 mm, -9.48 in) using estimated IR delay relative to Acoustic reference on  L with no timing offset
* Measurement: Galaxy Buds - Treble
* Smoothing: 1/48 octave
* Frequency Step: 1/24 octave
* Start Frequency: 20.000 Hz
*
* Freq(Hz)	SPL(dB)	Phase(degrees)
20.000000	62.174061	-121.2703
20.600000	62.274368	-122.7779
21.200001	62.378780	-123.8086
21.799999	62.520729	-125.0749
22.400000	62.624241	-126.5315
23.000000	62.719246	-127.5962
23.600000	62.899326	-128.4572
24.299999	63.156868	-130.1297
25.000000	63.269829	-132.1104
25.799999	63.275719	-133.0216
26.500000	63.398861	-132.9794
27.200001	63.592152	-133.5298
28.000000	63.701843	-134.6263
29.000000	63.785645	-135.4342
30.000000	63.896324	-136.5956
30.700001	63.945221	-137.3080
31.500000	64.057999	-138.1716
32.500000	64.103455	-139.5228
33.500000	64.234329	-139.4551
34.500000	64.516861	-141.3613
35.500000	64.310471	-143.3571
36.500000	64.199081	-142.3766
37.500000	64.408989	-142.5419
38.700001	64.535133	-145.0308
40.000000	64.259727	-146.5888
41.200001	64.463814	-145.2900
42.500000	64.824509	-147.2012
43.700001	64.891815	-148.2380
45.000000	64.856903	-149.2702
46.200001	64.778008	-148.6913
47.500000	64.810036	-149.3643
48.700001	64.816956	-149.6929
50.000000	64.813095	-152.0489
51.500000	64.586288	-151.5572
53.000000	64.740211	-150.9202
54.500000	64.754959	-151.4934
56.000000	64.689880	-151.2816
58.000000	64.684608	-152.5809
60.000000	63.332779	-155.6364
61.500000	64.452835	-150.1118
63.000000	64.603455	-152.7146
65.000000	64.933022	-153.9670
67.000000	64.824951	-152.8111
69.000000	64.872551	-152.2696
71.000000	65.019226	-152.3550
73.000000	64.929695	-153.1732
75.000000	64.987885	-152.3431
77.500000	65.142426	-153.0708
80.000000	64.986893	-152.2194
82.500000	65.071060	-151.8924
85.000000	65.088982	-152.2677
87.500000	65.032997	-151.7494
90.000000	65.211571	-151.0774
92.500000	65.210861	-150.8943
95.000000	65.259949	-151.3056
97.500000	65.197067	-151.4705
100.000000	65.160439	-151.1030
103.000000	65.237206	-151.0371
106.000000	65.320335	-150.5589
109.000000	65.393425	-150.2989
112.000000	65.365387	-149.9212
115.000000	65.464111	-149.9610
118.000000	65.511192	-149.0472
122.000000	65.604500	-149.1118
125.000000	65.581833	-149.2596
128.000000	65.701584	-148.3824
132.000000	65.821228	-148.7711
136.000000	65.818871	-148.5654
140.000000	65.800018	-148.5500
145.000000	65.935524	-147.4663
150.000000	65.996590	-146.8773
155.000000	65.997154	-146.2784
160.000000	66.119995	-146.8810
165.000000	66.210304	-146.1249
170.000000	66.178352	-145.5856
175.000000	66.379974	-145.6030
180.000000	66.382149	-143.9752
185.000000	66.307831	-144.0638
190.000000	66.424591	-143.9743
195.000000	66.283463	-142.7662
200.000000	66.499687	-143.0511
206.000000	66.389984	-142.0550
212.000000	66.410233	-141.1981
218.000000	66.379326	-141.0551
224.000000	66.412621	-140.3228
230.000000	66.459869	-139.4170
236.000000	66.427216	-139.0420
243.000000	66.434174	-137.1408
250.000000	66.407097	-136.1606
258.000000	66.639694	-134.6561
265.000000	66.663589	-133.9434
272.000000	66.648354	-133.1942
280.000000	66.715569	-132.6107
290.000000	66.758896	-131.0638
300.000000	66.899742	-129.6825
307.000000	66.746559	-129.5612
315.000000	66.712997	-128.3017
325.000000	66.698616	-127.5951
335.000000	66.750519	-126.4240
345.000000	66.654030	-124.5310
355.000000	66.690269	-122.8495
365.000000	66.618500	-121.4783
375.000000	66.657028	-120.4508
387.000000	66.648041	-117.6939
400.000000	66.714264	-116.5791
412.000000	66.570663	-114.1078
425.000000	66.580719	-111.8622
437.000000	66.606575	-110.2260
450.000000	66.458565	-107.5312
462.000000	66.516823	-105.9312
475.000000	66.433586	-103.6589
487.000000	66.347870	-101.8154
500.000000	66.504669	-99.2317
515.000000	66.366699	-96.0258
530.000000	66.377548	-93.1415
545.000000	66.378479	-90.3185
560.000000	66.351036	-87.6436
580.000000	66.302750	-83.5738
600.000000	66.219360	-79.1005
615.000000	66.148064	-76.3945
630.000000	66.188934	-73.9464
650.000000	66.170464	-68.9553
670.000000	66.106918	-65.1907
690.000000	66.084450	-61.0585
710.000000	66.067070	-56.8556
730.000000	66.018066	-52.6016
750.000000	65.961830	-48.3634
775.000000	65.962936	-42.2239
800.000000	65.935501	-36.4969
825.000000	65.917328	-30.4684
850.000000	65.959808	-24.5384
875.000000	65.977425	-18.6803
900.000000	66.018974	-12.8746
925.000000	66.062889	-6.1049
950.000000	66.096138	0.1187
975.000000	66.223846	6.2984
1000.000000	66.607658	12.3260
1030.000000	66.541786	20.5272
1060.000000	66.733902	27.8792
1090.000000	67.048004	35.2655
1120.000000	67.345360	42.1295
1150.000000	67.600739	48.9080
1180.000000	67.883423	55.7455
1220.000000	68.277863	63.8889
1250.000000	68.558899	70.0207
1280.000000	68.805824	75.7569
1320.000000	69.047844	83.7275
1360.000000	69.336769	91.8425
1400.000000	69.623810	99.6758
1450.000000	69.950562	109.3913
1500.000000	70.191238	118.9810
1550.000000	70.381149	129.1190
1600.000000	70.618118	139.2060
1650.000000	70.823143	149.3932
1700.000000	71.026505	159.8912
1750.000000	71.201431	170.4972
1800.000000	71.389145	-179.2811
1850.000000	71.574280	-168.4808
1900.000000	71.864204	-157.9258
1950.000000	72.095100	-147.1351
2000.000000	72.472435	-136.4263
2060.000000	72.673965	-124.1446
2120.000000	73.082283	-111.4353
2180.000000	73.339447	-98.9461
2240.000000	73.739670	-86.6203
2300.000000	74.190331	-74.7160
2360.000000	74.513779	-62.8681
2430.000000	74.906471	-49.2945
2500.000000	75.299255	-35.8924
2580.000000	75.778336	-21.0573
2650.000000	76.034531	-8.2744
2720.000000	76.352875	4.0571
2800.000000	76.557335	17.9921
2900.000000	76.701050	35.4906
3000.000000	76.734833	52.8251
3070.000000	76.635490	65.5775
3150.000000	76.426407	80.2090
3250.000000	76.103378	99.5181
3350.000000	75.739136	119.2783
3450.000000	75.319931	140.1240
3550.000000	74.918755	161.7159
3650.000000	74.564407	-176.2491
3750.000000	74.152466	-153.5869
3870.000000	73.763733	-125.7447
4000.000000	73.444382	-94.9489
4120.000000	73.123650	-65.5391
4250.000000	72.903008	-34.0505
4370.000000	72.731148	-4.5002
4500.000000	72.624832	27.5646
4620.000000	72.458832	57.3741
4750.000000	72.359535	90.4980
4870.000000	72.304649	121.1180
5000.000000	72.313911	154.6434
5150.000000	72.542465	-166.2354
5300.000000	72.853264	-127.3680
5450.000000	73.326500	-88.8679
5600.000000	73.903168	-50.8285
5800.000000	74.812286	-1.1868
6000.000000	75.845062	46.4144
6150.000000	76.663025	80.2074
6300.000000	77.388870	112.3171
6500.000000	77.910995	152.7407
6700.000000	77.857307	-166.8538
6900.000000	77.267036	-124.9277
7100.000000	76.404587	-80.1200
7300.000000	75.470825	-32.5061
7500.000000	74.732323	17.8905
7750.000000	74.189621	82.4700
8000.000000	74.245872	147.8768
8250.000000	74.869537	-150.1360
8500.000000	75.420410	-94.0442
8750.000000	74.971458	-40.9976
9000.000000	73.902954	15.4487
9250.000000	72.649620	74.8250
9500.000000	71.454559	136.4902
9750.000000	70.244141	-161.0269
10000.000000	68.989838	-97.1050
10300.000000	67.339294	-18.5833
10600.000000	65.808022	62.4724
10900.000000	64.397766	145.3892
11200.000000	63.165855	-129.1270
11500.000000	62.230026	-42.3906
11800.000000	61.573174	46.5569
12200.000000	61.371567	165.8984
12500.000000	61.700134	-106.0535
12800.000000	62.693371	-19.8708
13200.000000	64.225540	88.8193
13600.000000	65.684738	-168.5542
14000.000000	66.546036	-70.9875
14500.000000	66.451401	46.7314
15000.000000	64.197060	168.4324
15500.000000	62.067932	-63.0601
16000.000000	60.191200	-4.1460
16500.000000	59.265251	-148.2712
17000.000000	59.076904	-9.0083
17500.000000	59.630878	124.9263
18000.000000	60.736591	-113.6108
18500.000000	59.679585	-9.6855
19000.000000	55.033039	103.7080
19500.000000	50.008823	-131.2651
