* Measurement data measured by REW V5.20
* Source: Headset (USB-C to 3.5mm Headphone Jack Adapter), MICROPHONE (Master Volume), R, volume: 0.260. Timing signal peak level -31.0 dBFS, measurement signal peak level -30.8 dBFS
* Format: 512k Log Swept Sine, 1 sweep using an acoustic timing reference
* Dated: Apr 4, 2022 2:55:18 PM
* REW Settings:
*  C-weighting compensation: Off
*  Target level: 75.0 dB
* Note: ; Delay -0.1256 ms (-43 mm, -1.7 in) using estimated IR delay relative to Acoustic reference on HEADPHONE R with no timing offset
* Measurement: Buds Live Clear
* Smoothing: 1/48 octave
* Frequency Step: 1/24 octave
* Start Frequency: 20.600 Hz
*
* Freq(Hz)	SPL(dB)	Phase(degrees)
20.600000	76.442764	97.6641
21.200001	76.985229	93.5302
21.799999	77.657791	92.3845
22.400000	77.759491	90.0571
23.000000	77.938858	86.2958
23.600000	78.253357	85.6362
24.299999	78.261147	84.4637
25.000000	78.571022	81.6398
25.799999	78.717720	80.6494
26.500000	78.495407	75.7631
27.200001	78.911377	71.6413
28.000000	79.148468	72.4663
29.000000	79.156830	66.6253
30.000000	79.834251	64.2710
30.700001	79.850563	63.6830
31.500000	80.047073	60.7452
32.500000	80.063774	57.7355
33.500000	79.777008	54.7932
34.500000	80.118683	53.4308
35.500000	80.373489	50.9454
36.500000	80.202591	48.0817
37.500000	80.309105	46.7700
38.700001	80.461884	43.9611
40.000000	80.124420	40.8888
41.200001	80.396118	39.2097
42.500000	80.474724	36.3076
43.700001	80.260086	34.8150
45.000000	80.422577	32.0110
46.200001	80.199295	29.4338
47.500000	80.007156	28.2137
48.700001	79.939926	28.2631
50.000000	79.857544	25.6995
51.500000	79.613144	23.5957
53.000000	79.606522	22.6397
54.500000	79.603661	21.0004
56.000000	79.501503	19.4918
58.000000	79.378479	18.3190
60.000000	79.215897	17.0471
61.500000	79.221542	16.7911
63.000000	79.302666	15.6749
65.000000	79.559204	15.8225
67.000000	79.066025	15.1906
69.000000	79.017258	13.1272
71.000000	78.878220	12.4656
73.000000	78.952133	12.4416
75.000000	78.915359	12.0304
77.500000	78.925133	10.7212
80.000000	78.941162	9.3022
82.500000	78.957771	8.3766
85.000000	78.956322	7.4916
87.500000	78.897034	7.0043
90.000000	78.966835	4.8403
92.500000	78.916161	4.2829
95.000000	78.830742	2.8555
97.500000	78.837883	1.7410
100.000000	78.766197	0.5647
103.000000	78.724556	-1.7982
106.000000	78.617569	-3.2688
109.000000	78.535194	-4.4439
112.000000	78.319817	-6.2796
115.000000	78.125969	-6.2351
118.000000	77.879616	-7.5928
122.000000	77.700912	-8.6233
125.000000	77.515587	-9.6161
128.000000	77.413925	-10.3576
132.000000	77.147659	-10.6217
136.000000	76.818054	-10.7830
140.000000	76.632980	-11.2577
145.000000	76.410057	-11.9018
150.000000	76.077049	-12.3531
155.000000	75.799980	-11.5363
160.000000	75.489464	-11.6849
165.000000	75.305130	-11.4214
170.000000	75.153770	-10.5023
175.000000	74.921761	-10.9146
180.000000	74.646561	-10.2364
185.000000	74.369461	-8.5970
190.000000	74.147423	-8.3564
195.000000	73.953644	-7.2385
200.000000	73.758118	-6.1446
206.000000	73.618713	-4.0163
212.000000	73.502487	-3.4053
218.000000	73.392014	-1.6771
224.000000	73.289978	0.4829
230.000000	73.134438	1.7082
236.000000	73.176697	3.4067
243.000000	73.096489	5.4415
250.000000	73.109566	7.2226
258.000000	73.135757	9.1316
265.000000	73.179054	10.7004
272.000000	73.271873	12.2407
280.000000	73.416969	13.3999
290.000000	73.648506	15.4569
300.000000	73.694016	16.3832
307.000000	73.837509	16.8843
315.000000	73.854324	18.0114
325.000000	73.936111	18.9479
335.000000	73.984169	19.9499
345.000000	74.023636	22.4063
355.000000	74.211433	24.7576
365.000000	74.559715	26.5880
375.000000	74.979767	27.2733
387.000000	75.236366	26.9110
400.000000	75.553322	26.8340
412.000000	75.788574	26.0051
425.000000	75.991714	25.4057
437.000000	76.130783	24.9192
450.000000	76.273003	24.5229
462.000000	76.378029	24.0603
475.000000	76.452332	23.2142
487.000000	76.537605	22.0950
500.000000	76.623375	22.0424
515.000000	76.683884	21.1302
530.000000	76.668564	20.5407
545.000000	76.689201	19.7808
560.000000	76.583290	19.1794
580.000000	76.464455	18.5345
600.000000	76.384079	18.0121
615.000000	76.284164	17.6720
630.000000	76.172150	17.7211
650.000000	75.933182	17.4729
670.000000	75.744949	17.8166
690.000000	75.567688	18.4432
710.000000	75.386711	19.0774
730.000000	75.249207	19.6452
750.000000	75.122681	20.6475
775.000000	74.847450	21.8083
800.000000	74.632416	23.3975
825.000000	74.497162	25.0609
850.000000	74.358658	26.9412
875.000000	74.253090	28.6051
900.000000	74.172035	30.5345
925.000000	74.063293	32.2829
950.000000	74.017548	34.0459
975.000000	73.971916	35.6575
1000.000000	73.906464	37.5557
1030.000000	73.892334	39.7955
1060.000000	73.905594	42.0619
1090.000000	73.958321	44.0324
1120.000000	74.048561	46.1137
1150.000000	74.078270	47.1929
1180.000000	74.057938	48.6141
1220.000000	74.039139	50.2659
1250.000000	74.000748	51.8019
1280.000000	73.922867	53.2466
1320.000000	73.812149	55.2951
1360.000000	73.691681	57.7753
1400.000000	73.587151	60.2729
1450.000000	73.394501	64.4400
1500.000000	73.279396	68.7499
1550.000000	73.245552	73.6441
1600.000000	73.278526	78.5679
1650.000000	73.422104	83.8001
1700.000000	73.608307	88.9007
1750.000000	74.035309	93.7017
1800.000000	74.301392	98.4159
1850.000000	74.676399	102.4069
1900.000000	75.213898	106.1566
1950.000000	75.622162	109.4925
2000.000000	76.225975	112.3558
2060.000000	76.805702	115.4411
2120.000000	77.415123	117.1644
2180.000000	78.034874	118.3022
2240.000000	78.717377	119.2709
2300.000000	79.349388	119.5154
2360.000000	79.983864	118.9717
2430.000000	80.549194	117.1522
2500.000000	80.943420	114.5369
2580.000000	80.949783	110.7202
2650.000000	80.488647	108.8858
2720.000000	79.962006	110.1653
2800.000000	79.586540	114.6698
2900.000000	79.828499	119.9252
3000.000000	80.193352	122.8783
3070.000000	80.377838	123.8475
3150.000000	80.566109	124.2699
3250.000000	80.682976	125.3063
3350.000000	80.923737	124.4957
3450.000000	80.796806	123.4928
3550.000000	80.606956	122.1503
3650.000000	80.032967	119.7719
3750.000000	79.058128	119.6120
3870.000000	77.801712	123.6541
4000.000000	76.889961	130.3462
4120.000000	76.163177	136.6548
4250.000000	75.733139	143.7555
4370.000000	75.259827	150.2488
4500.000000	74.721848	156.7689
4620.000000	74.295059	162.9802
4750.000000	73.798370	170.4215
4870.000000	73.364563	177.9662
5000.000000	72.821693	-173.6419
5150.000000	72.315681	-163.0314
5300.000000	71.768791	-151.4369
5450.000000	71.392509	-138.0602
5600.000000	71.230171	-123.0896
5800.000000	71.501701	-101.2245
6000.000000	72.726120	-78.8805
6150.000000	74.268974	-63.9460
6300.000000	76.143280	-51.7376
6500.000000	79.010040	-40.1454
6700.000000	82.112793	-36.0647
6900.000000	84.915421	-41.4080
7100.000000	86.280350	-53.8601
7300.000000	86.066872	-65.3176
7500.000000	84.968193	-70.2355
7750.000000	83.497231	-68.3162
8000.000000	82.486473	-61.6659
8250.000000	82.067924	-52.6191
8500.000000	82.347450	-44.1429
8750.000000	83.044296	-38.7150
9000.000000	83.900795	-37.5879
9250.000000	84.486542	-44.1180
9500.000000	83.605789	-53.7543
9750.000000	81.314804	-57.7962
10000.000000	78.809891	-53.0870
10300.000000	76.474213	-40.4055
10600.000000	74.761124	-26.7334
10900.000000	73.571678	-12.3515
11200.000000	72.605225	1.8247
11500.000000	71.826019	15.8170
11800.000000	71.174591	29.2679
12200.000000	70.441872	46.6560
12500.000000	69.516563	60.5309
12800.000000	68.839470	78.6674
13200.000000	69.483879	107.9808
13600.000000	72.559898	122.7004
14000.000000	74.678787	120.8397
14500.000000	76.072235	102.5148
15000.000000	72.496765	74.2985
15500.000000	65.995819	72.7587
16000.000000	59.995544	92.8291
16500.000000	55.639050	127.4861
17000.000000	54.804340	158.2723
17500.000000	56.027351	-178.8594
18000.000000	58.718124	-170.8635
18500.000000	61.811333	177.6569
19000.000000	63.298592	145.0007
19500.000000	62.418839	100.0457
