* Measurement data measured by REW V5.30.9
* Source: Headset (USB-C to 3.5mm Headphone Jack Adapter), MICROPHONE (Master Volume), R, volume: 0.250
* Format: 512k Log Swept Sine, 1 sweep at -12.0 dBFS with no timing reference
* Dated: Jul 23, 2024 8:29:31 PM
* REW Settings:
*  C-weighting compensation: Off
*  Target level: 75.0 dB
* Note: ; 
* Measurement: Galaxy Buds 3 Pro R
* Smoothing: 1/24 octave
* Frequency Step: 96 ppo
* Start Frequency: 20.141602 Hz
*
* Freq(Hz) SPL(dB) Phase(degrees)
20.141602 82.105 -71.9726
20.287556 82.119 -72.0834
20.434568 82.140 -72.2359
20.582645 82.165 -72.4016
20.731796 82.195 -72.5714
20.882027 82.228 -72.7491
21.033346 82.266 -72.9405
21.185762 82.306 -73.1495
21.339283 82.347 -73.3783
21.493916 82.387 -73.6245
21.649670 82.425 -73.8815
21.806553 82.457 -74.1414
21.964573 82.484 -74.3923
22.123737 82.503 -74.6225
22.284056 82.514 -74.8227
22.445536 82.518 -74.9845
22.608185 82.516 -75.1056
22.772013 82.513 -75.1880
22.937029 82.510 -75.2385
23.103241 82.511 -75.2703
23.270657 82.519 -75.2980
23.439285 82.536 -75.3387
23.609137 82.563 -75.4075
23.780218 82.600 -75.5147
23.952539 82.644 -75.6658
24.126110 82.691 -75.8583
24.300938 82.739 -76.0839
24.477032 82.780 -76.3304
24.654402 82.813 -76.5819
24.833057 82.832 -76.8249
25.013008 82.837 -77.0465
25.194263 82.827 -77.2400
25.376831 82.805 -77.4032
25.560722 82.775 -77.5391
25.745945 82.742 -77.6555
25.932510 82.712 -77.7611
26.120428 82.690 -77.8655
26.309708 82.680 -77.9741
26.500359 82.684 -78.0887
26.692390 82.701 -78.2061
26.885815 82.727 -78.3198
27.080641 82.758 -78.4229
27.276878 82.788 -78.5101
27.474539 82.812 -78.5812
27.673630 82.826 -78.6413
27.874165 82.828 -78.7010
28.076153 82.819 -78.7731
28.279604 82.804 -78.8704
28.484529 82.785 -78.9995
28.690941 82.768 -79.1588
28.898848 82.756 -79.3360
29.108261 82.752 -79.5090
29.319191 82.755 -79.6513
29.531651 82.763 -79.7375
29.745649 82.773 -79.7502
29.961199 82.782 -79.6854
30.178310 82.786 -79.5549
30.396996 82.787 -79.3830
30.617264 82.785 -79.2031
30.839128 82.782 -79.0496
31.062601 82.781 -78.9483
31.287693 82.783 -78.9126
31.514416 82.785 -78.9386
31.742783 82.785 -79.0094
31.972803 82.779 -79.0989
32.204491 82.761 -79.1829
32.437859 82.729 -79.2425
32.672916 82.685 -79.2710
32.909679 82.632 -79.2708
33.148155 82.580 -79.2513
33.388359 82.537 -79.2213
33.630306 82.511 -79.1845
33.874004 82.506 -79.1367
34.119469 82.520 -79.0677
34.366711 82.546 -78.9669
34.615746 82.573 -78.8283
34.866585 82.590 -78.6558
35.119244 82.590 -78.4610
35.373734 82.569 -78.2613
35.630066 82.532 -78.0716
35.888256 82.484 -77.8996
36.148315 82.436 -77.7436
36.410259 82.396 -77.5936
36.674103 82.367 -77.4390
36.939857 82.350 -77.2737
37.207539 82.338 -77.1015
37.477161 82.326 -76.9337
37.748737 82.310 -76.7824
38.022282 82.288 -76.6532
38.297806 82.264 -76.5391
38.575329 82.243 -76.4226
38.854862 82.230 -76.2837
39.136421 82.226 -76.1087
39.420021 82.229 -75.8991
39.705673 82.232 -75.6695
39.993397 82.229 -75.4384
40.283207 82.216 -75.2168
40.575115 82.194 -75.0010
40.869141 82.168 -74.7731
41.165295 82.145 -74.5146
41.463596 82.130 -74.2197
41.764057 82.121 -73.9034
42.066696 82.111 -73.5992
42.371529 82.091 -73.3435
42.678570 82.055 -73.1547
42.987835 82.003 -73.0246
43.299343 81.944 -72.9220
43.613110 81.892 -72.8055
43.929150 81.862 -72.6415
44.247478 81.858 -72.4170
44.568115 81.875 -72.1352
44.891075 81.896 -71.8016
45.216373 81.905 -71.4129
45.544029 81.895 -70.9598
45.874062 81.867 -70.4406
46.206486 81.833 -69.8766
46.541317 81.808 -69.3158
46.878574 81.800 -68.8145
47.218277 81.805 -68.4077
47.560440 81.811 -68.0875
47.905083 81.806 -67.8097
48.252224 81.783 -67.5218
48.601879 81.746 -67.1918
48.954067 81.705 -66.8216
49.308807 81.668 -66.4361
49.666119 81.639 -66.0585
50.026020 81.613 -65.6907
50.388531 81.586 -65.3122
50.753666 81.559 -64.8967
51.121449 81.537 -64.4310
51.491894 81.528 -63.9208
51.865025 81.531 -63.3819
52.240860 81.536 -62.8255
52.619419 81.531 -62.2527
53.000721 81.506 -61.6631
53.384785 81.468 -61.0678
53.771633 81.427 -60.4934
54.161285 81.397 -59.9709
54.553761 81.379 -59.5139
54.949081 81.364 -59.1042
55.347263 81.341 -58.6960
55.748333 81.306 -58.2376
56.152309 81.263 -57.6984
56.559212 81.223 -57.0846
56.969063 81.191 -56.4324
57.381886 81.165 -55.7826
57.797699 81.143 -55.1545
58.216526 81.125 -54.5428
58.638386 81.114 -53.9349
59.063305 81.111 -53.3298
59.491302 81.109 -52.7369
59.922401 81.097 -52.1576
60.356625 81.068 -51.5724
60.793995 81.025 -50.9527
61.234531 80.981 -50.2840
61.678261 80.946 -49.5728
62.125206 80.921 -48.8261
62.575390 80.899 -48.0316
63.028835 80.875 -47.1746
63.485569 80.847 -46.2803
63.945610 80.816 -45.4281
64.408989 80.786 -44.7036
64.875725 80.761 -44.1246
65.345840 80.744 -43.6209
65.819366 80.736 -43.0928
66.296318 80.731 -42.4901
66.776726 80.718 -41.8294
67.260620 80.692 -41.1451
67.748016 80.653 -40.4416
68.238945 80.612 -39.6968
68.733429 80.574 -38.8951
69.231499 80.545 -38.0401
69.733177 80.522 -37.1454
70.238495 80.505 -36.2311
70.747475 80.491 -35.3315
71.260139 80.473 -34.4759
71.776520 80.444 -33.6470
72.296638 80.406 -32.7727
72.820526 80.365 -31.7940
73.348213 80.332 -30.7445
73.879723 80.308 -29.7317
74.415085 80.286 -28.8218
74.954330 80.258 -27.9633
75.497482 80.224 -27.0560
76.044571 80.188 -26.0839
76.595619 80.153 -25.1370
77.150665 80.122 -24.2937
77.709732 80.095 -23.5254
78.272850 80.075 -22.7427
78.840050 80.066 -21.9017
79.411354 80.069 -21.0338
79.986801 80.078 -20.1835
80.566422 80.082 -19.3518
81.150238 80.072 -18.4978
81.738289 80.046 -17.5716
82.330597 80.011 -16.5569
82.927200 79.974 -15.4895
83.528122 79.934 -14.4089
84.133400 79.888 -13.2865
84.743065 79.839 -12.0554
85.357147 79.797 -10.7370
85.975677 79.768 -9.4673
86.598694 79.745 -8.3492
87.226227 79.717 -7.3249
87.858307 79.674 -6.2401
88.494965 79.616 -4.9919
89.136238 79.558 -3.5978
89.782158 79.514 -2.1721
90.432755 79.487 -0.8498
91.088066 79.464 0.3151
91.748131 79.436 1.3850
92.412979 79.403 2.4422
93.082642 79.372 3.4913
93.757156 79.346 4.5102
94.436562 79.323 5.5625
95.120888 79.301 6.7638
95.810173 79.282 8.1292
96.504456 79.269 9.5416
97.203766 79.251 10.9040
97.908142 79.219 12.2499
98.617622 79.174 13.6453
99.332245 79.127 15.0424
100.052048 79.087 16.3360
100.777069 79.047 17.5283
101.507339 78.997 18.7216
102.242905 78.937 19.9801
102.983795 78.878 21.3149
103.730057 78.831 22.7442
104.481728 78.797 24.2616
105.238846 78.769 25.8117
106.001450 78.744 27.3502
106.769577 78.720 28.8626
107.543274 78.698 30.3465
108.322578 78.680 31.8287
109.107529 78.664 33.3239
109.898170 78.642 34.7926
110.694534 78.606 36.2349
111.496674 78.556 37.7323
112.304626 78.497 39.3186
113.118431 78.439 40.9406
113.938133 78.394 42.5520
114.763779 78.373 44.1267
115.595406 78.369 45.6546
116.433060 78.362 47.2000
117.276779 78.336 48.8613
118.126617 78.286 50.6626
118.982613 78.224 52.5624
119.844810 78.171 54.5028
120.713257 78.132 56.3895
121.587997 78.100 58.1289
122.469070 78.068 59.7424
123.356529 78.028 61.3666
124.250420 77.973 63.0751
125.150787 77.913 64.7898
126.057678 77.868 66.4554
126.971146 77.846 68.1507
127.891228 77.834 69.9595
128.817978 77.817 71.9026
129.751450 77.785 73.9372
130.691681 77.745 75.9461
131.638733 77.702 77.8655
132.592636 77.659 79.7551
133.553452 77.615 81.6765
134.521240 77.567 83.6588
135.496033 77.515 85.7371
136.477890 77.467 87.8806
137.466858 77.429 89.9764
138.462997 77.402 91.9684
139.466354 77.379 93.9376
140.476990 77.348 95.9655
141.494949 77.310 98.0072
142.520279 77.268 100.0278
143.553040 77.224 102.1297
144.593277 77.170 104.4368
145.641052 77.107 106.9276
146.696426 77.047 109.4141
147.759445 77.001 111.7411
148.830170 76.966 113.9338
149.908661 76.935 116.0696
150.994965 76.904 118.2162
152.089142 76.873 120.4872
153.191238 76.843 122.8996
154.301331 76.815 125.3022
155.419464 76.785 127.5817
156.545700 76.747 129.7733
157.680099 76.699 131.9943
158.822708 76.644 134.3651
159.973602 76.597 136.9088
161.132843 76.565 139.5348
162.300476 76.546 142.1958
163.476578 76.525 144.8786
164.661194 76.484 147.5313
165.854401 76.422 150.1348
167.056244 76.361 152.6818
168.266800 76.321 155.1888
169.486130 76.302 157.7122
170.714294 76.286 160.2751
171.951355 76.260 162.8569
173.197388 76.226 165.4544
174.452454 76.188 168.0833
175.716614 76.152 170.7766
176.989929 76.123 173.5490
178.272476 76.097 176.3428
179.564316 76.064 179.1382
180.865509 76.018 -178.0032
182.176132 75.964 -175.0519
183.496262 75.913 -172.0409
184.825958 75.877 -169.0393
186.165283 75.861 -166.0981
187.514313 75.859 -163.2129
188.873123 75.858 -160.3736
190.241776 75.837 -157.5342
191.620346 75.796 -154.6193
193.008911 75.752 -151.6151
194.407532 75.720 -148.5352
195.816284 75.702 -145.4014
197.235245 75.693 -142.2427
198.664490 75.685 -139.1110
200.104095 75.676 -136.0418
201.554138 75.669 -132.9762
203.014679 75.666 -129.8318
204.485809 75.655 -126.6067
205.967590 75.624 -123.3323
207.460114 75.575 -120.0575
208.963455 75.528 -116.8345
210.477692 75.499 -113.6655
212.002899 75.486 -110.5014
213.539154 75.476 -107.2534
215.086548 75.450 -103.8662
216.645157 75.408 -100.3863
218.215057 75.360 -96.9146
219.796341 75.323 -93.4960
221.389069 75.303 -90.0697
222.993347 75.297 -86.5610
224.609253 75.295 -83.0001
226.236862 75.284 -79.4595
227.876266 75.264 -75.9870
229.527557 75.244 -72.5637
231.190811 75.228 -69.0769
232.866119 75.210 -65.4526
234.553558 75.190 -61.7155
236.253235 75.169 -57.9380
237.965225 75.149 -54.1993
239.689621 75.125 -50.5132
241.426514 75.100 -46.8676
243.175995 75.076 -43.2078
244.938141 75.057 -39.4596
246.713058 75.042 -35.5946
248.500839 75.030 -31.6439
250.301575 75.017 -27.6942
252.115356 74.999 -23.7826
253.942291 74.976 -19.8695
255.782455 74.952 -15.9210
257.635956 74.929 -11.9257
259.502899 74.910 -7.8882
261.383362 74.894 -3.8040
263.277466 74.876 0.3066
265.185272 74.858 4.4200
267.106903 74.836 8.5601
269.042480 74.813 12.7701
270.992065 74.791 17.0291
272.955780 74.770 21.2837
274.933716 74.753 25.5226
276.925995 74.736 29.7809
278.932709 74.719 34.0896
280.953979 74.707 38.4520
282.989899 74.698 42.8511
285.040558 74.694 47.2454
287.106079 74.690 51.6194
289.186554 74.682 55.9841
291.282104 74.667 60.3406
293.392853 74.645 64.7023
295.518890 74.613 69.1183
297.660339 74.575 73.6658
299.817322 74.540 78.3837
301.989929 74.516 83.2219
304.178284 74.500 88.0699
306.382477 74.482 92.8870
308.602661 74.458 97.6890
310.838928 74.429 102.4724
313.091400 74.402 107.2345
315.360199 74.379 112.0221
317.645416 74.360 116.9010
319.947205 74.338 121.8760
322.265686 74.305 126.9367
324.600952 74.264 132.0941
326.953156 74.225 137.3146
329.322388 74.195 142.5308
331.708801 74.176 147.7228
334.112488 74.165 152.9412
336.533600 74.158 158.2267
338.972260 74.154 163.5667
341.428589 74.151 168.9251
343.902710 74.151 174.2759
346.394775 74.153 179.6436
348.904907 74.155 -174.9283
351.433228 74.154 -169.4360
353.979858 74.148 -163.9131
356.544952 74.139 -158.3809
359.128632 74.132 -152.8228
361.731018 74.132 -147.1967
364.352264 74.142 -141.4772
366.992523 74.158 -135.6785
369.651917 74.174 -129.8608
372.330566 74.186 -124.0590
375.028625 74.189 -118.2356
377.746246 74.184 -112.3560
380.483551 74.170 -106.4443
383.240692 74.153 -100.5265
386.017822 74.140 -94.5704
388.815063 74.134 -88.5206
391.632568 74.130 -82.3682
394.470490 74.128 -76.1546
397.328979 74.128 -69.9318
400.208191 74.132 -63.7469
403.108276 74.141 -57.6058
406.029358 74.148 -51.4378
408.971619 74.153 -45.1860
411.935181 74.158 -38.8532
414.920227 74.162 -32.4434
417.926910 74.162 -25.9558
420.955383 74.157 -19.4255
424.005798 74.152 -12.8735
427.078308 74.157 -6.2821
430.173096 74.176 0.3352
433.290314 74.196 6.9685
436.430115 74.207 13.6584
439.592682 74.202 20.4291
442.778137 74.188 27.2756
445.986694 74.178 34.1832
449.218506 74.178 41.1141
452.473724 74.187 48.0377
455.752533 74.199 54.9572
459.055115 74.209 61.8845
462.381622 74.214 68.8220
465.732239 74.221 75.8043
469.107117 74.235 82.8886
472.506470 74.256 90.0873
475.930450 74.280 97.3740
479.379242 74.297 104.7223
482.853027 74.302 112.1072
486.351990 74.293 119.5278
489.876282 74.279 127.0232
493.426117 74.264 134.5931
497.001678 74.252 142.2097
500.603149 74.243 149.8615
504.230713 74.239 157.5420
507.884583 74.246 165.2576
511.564911 74.264 173.0018
515.271912 74.284 -179.2529
519.005798 74.296 -171.4744
522.766724 74.296 -163.5889
526.554932 74.290 -155.5986
530.370544 74.278 -147.5444
534.213806 74.260 -139.4216
538.084961 74.240 -131.1895
541.984131 74.229 -122.8545
545.911560 74.229 -114.4664
549.867432 74.235 -106.0684
553.851990 74.238 -97.6726
557.865417 74.233 -89.2090
561.907959 74.225 -80.6210
565.979797 74.224 -71.9465
570.081116 74.233 -63.2336
574.212158 74.241 -54.4786
578.373108 74.240 -45.6769
582.564209 74.230 -36.8549
586.785706 74.218 -28.0178
591.037781 74.203 -19.1028
595.320679 74.189 -10.0436
599.634644 74.178 -0.8517
603.979858 74.170 8.4099
608.356567 74.165 17.6818
612.764954 74.159 26.9590
617.205322 74.151 36.2783
621.677856 74.140 45.6807
626.182800 74.131 55.2473
630.720398 74.129 65.0271
635.290833 74.139 74.8969
639.894409 74.161 84.6106
644.531372 74.190 93.9879
649.201904 74.212 102.9719
653.906311 74.214 111.5651
658.644775 74.193 119.7789
663.417603 74.150 127.6301
668.224976 74.097 135.2014
673.067200 74.052 142.6671
677.944519 74.023 150.1705
682.857178 74.003 157.7233
687.805420 73.985 165.2820
692.789551 73.970 172.8514
697.809814 73.963 -179.5332
702.866455 73.961 -171.8671
707.959717 73.959 -164.1461
713.089905 73.951 -156.3748
718.257263 73.940 -148.5964
723.462036 73.928 -140.8511
728.704529 73.918 -133.0939
733.985046 73.907 -125.2437
739.303833 73.894 -117.2930
744.661133 73.879 -109.2723
750.057251 73.863 -101.1949
755.492493 73.851 -93.0923
760.967102 73.842 -84.9966
766.481384 73.839 -76.9055
772.035645 73.839 -68.7898
777.630127 73.837 -60.6147
783.265137 73.830 -52.3901
788.940979 73.818 -44.1328
794.657959 73.806 -35.8213
800.416382 73.797 -27.4274
806.216553 73.790 -18.9489
812.058716 73.783 -10.4115
817.943237 73.774 -1.8350
823.870361 73.765 6.7753
829.840454 73.758 15.3890
835.853821 73.754 23.9990
841.910767 73.756 32.6428
848.011597 73.765 41.3497
854.156616 73.778 50.1155
860.346191 73.790 58.9095
866.580627 73.799 67.7035
872.860229 73.805 76.5171
879.185364 73.812 85.3953
885.556274 73.822 94.3503
891.973389 73.830 103.3584
898.437012 73.835 112.3979
904.947449 73.838 121.4720
911.505066 73.843 130.5883
918.110229 73.854 139.7593
924.763245 73.873 148.9731
931.464478 73.898 158.2101
938.214233 73.926 167.4545
945.012939 73.954 176.7103
951.860901 73.979 -173.9995
958.758484 74.002 -164.6759
965.706055 74.024 -155.3304
972.703979 74.047 -145.9482
979.752563 74.073 -136.4991
986.852234 74.099 -126.9768
994.003357 74.121 -117.3921
1001.206299 74.144 -107.7699
1008.461426 74.170 -98.1335
1015.769165 74.204 -88.4636
1023.129822 74.244 -78.7614
1030.543823 74.291 -69.0486
1038.011597 74.339 -59.3182
1045.533447 74.386 -49.5731
1053.109863 74.429 -39.8137
1060.741089 74.468 -30.0175
1068.427612 74.504 -20.1577
1076.169922 74.543 -10.2462
1083.968262 74.586 -0.3173
1091.823120 74.632 9.6062
1099.734863 74.681 19.5245
1107.703979 74.731 29.4760
1115.730835 74.779 39.4985
1123.815918 74.823 49.5759
1131.959595 74.865 59.6960
1140.162231 74.910 69.8677
1148.424316 74.961 80.0464
1156.746216 75.015 90.1543
1165.128418 75.067 100.2124
1173.571411 75.115 110.3384
1182.075562 75.160 120.6152
1190.641357 75.208 131.0168
1199.269287 75.260 141.4604
1207.959717 75.318 151.8994
1216.713135 75.377 162.3184
1225.529907 75.435 172.7197
1234.410645 75.489 -176.8633
1243.355713 75.542 -166.4082
1252.365601 75.596 -155.9126
1261.440796 75.649 -145.3726
1270.581665 75.703 -134.7715
1279.788818 75.757 -124.1392
1289.062744 75.811 -113.5093
1298.403809 75.865 -102.8870
1307.812622 75.918 -92.2607
1317.289551 75.968 -81.5837
1326.835205 76.015 -70.8171
1336.449951 76.062 -59.9683
1346.134399 76.112 -49.0857
1355.889038 76.167 -38.2175
1365.714355 76.222 -27.3606
1375.610840 76.275 -16.4729
1385.579102 76.328 -5.5215
1395.619629 76.383 5.4766
1405.732910 76.443 16.5012
1415.919434 76.507 27.5500
1426.179810 76.574 38.6160
1436.514526 76.637 49.6914
1446.924072 76.689 60.8181
1457.409058 76.734 72.0356
1467.970093 76.777 83.3367
1478.607666 76.825 94.6597
1489.322266 76.880 105.9539
1500.114502 76.940 117.2512
1510.984985 77.005 128.6030
1521.934204 77.073 140.0073
1532.962769 77.137 151.4285
1544.071289 77.196 162.8379
1555.260254 77.251 174.2581
1566.530273 77.304 -174.2703
1577.881958 77.357 -162.7390
1589.315918 77.417 -151.1724
1600.832764 77.483 -139.5837
1612.433105 77.552 -127.9773
1624.117432 77.619 -116.3611
1635.886475 77.679 -104.7041
1647.740723 77.732 -92.9805
1659.680908 77.782 -81.1956
1671.707642 77.834 -69.3879
1683.821533 77.885 -57.5869
1696.023193 77.936 -45.7764
1708.313232 77.988 -33.9282
1720.692383 78.042 -22.0305
1733.161255 78.099 -10.0757
1745.720459 78.157 1.9214
1758.370728 78.215 13.9607
1771.112549 78.275 26.0405
1783.946777 78.335 38.1545
1796.874023 78.391 50.2930
1809.894897 78.444 62.4497
1823.010132 78.493 74.6123
1836.220459 78.538 86.7783
1849.526489 78.579 99.0029
1862.928955 78.624 111.3276
1876.428467 78.682 123.6897
1890.025879 78.753 136.0073
1903.721802 78.824 148.2808
1917.516968 78.884 160.5757
1931.412109 78.928 172.9575
1945.407959 78.964 -174.5376
1959.505127 79.002 -161.9358
1973.704468 79.051 -149.3511
1988.006714 79.108 -136.8396
2002.412598 79.165 -124.3037
2016.922852 79.219 -111.6797
2031.538330 79.268 -99.0125
2046.259644 79.319 -86.3491
2061.087646 79.375 -73.7031
2076.023193 79.436 -61.0615
2091.066895 79.497 -48.4155
2106.219727 79.554 -35.7507
2121.482178 79.607 -23.0024
2136.855225 79.664 -10.1738
2152.339844 79.728 2.6421
2167.936523 79.795 15.4124
2183.646240 79.859 28.1643
2199.469727 79.915 40.9268
2215.407959 79.964 53.7317
2231.461670 80.009 66.5950
2247.631836 80.058 79.4944
2263.919189 80.112 92.3677
2280.324463 80.168 105.1765
2296.848633 80.221 117.9783
2313.492432 80.267 130.8352
2330.256836 80.309 143.7415
2347.142822 80.356 156.6636
2364.151123 80.409 169.5557
2381.282715 80.465 -177.6204
2398.538574 80.517 -164.7905
2415.919434 80.563 -151.8923
2433.426270 80.604 -138.9873
2451.059814 80.643 -126.0930
2468.821289 80.682 -113.1589
2486.711426 80.719 -100.1951
2504.731201 80.751 -87.2449
2522.881592 80.774 -74.3047
2541.163330 80.788 -61.3752
2559.577637 80.790 -48.4534
2578.125488 80.779 -35.4629
2596.807617 80.765 -22.3501
2615.625244 80.761 -9.1533
2634.579102 80.767 4.0356
2653.670410 80.773 17.1748
2672.899902 80.767 30.3005
2692.268799 80.746 43.4629
2711.778076 80.709 56.7007
2731.428711 80.662 70.0227
2751.221680 80.615 83.4285
2771.158203 80.579 96.9038
2791.239258 80.559 110.3882
2811.465820 80.547 123.8394
2831.838867 80.530 137.2898
2852.359619 80.500 150.7817
2873.029053 80.460 164.3125
2893.848145 80.417 177.8623
2914.818115 80.372 -168.5610
2935.940186 80.323 -154.9214
2957.215332 80.271 -141.1975
2978.644531 80.221 -127.3955
3000.229004 80.177 -113.5579
3021.969971 80.136 -99.7097
3043.868408 80.096 -85.8586
3065.925537 80.053 -72.0225
3088.142578 80.007 -58.1941
3110.520508 79.957 -44.3682
3133.060547 79.905 -30.5554
3155.763916 79.852 -16.7258
3178.631836 79.801 -2.8240
3201.665527 79.760 11.1323
3224.866211 79.730 25.0625
3248.234863 79.703 38.9265
3271.772949 79.669 52.7617
3295.481445 79.626 66.6072
3319.361816 79.575 80.4807
3343.415283 79.519 94.4075
3367.643066 79.461 108.4148
3392.046387 79.404 122.4890
3416.626465 79.350 136.5779
3441.384766 79.298 150.6611
3466.322510 79.247 164.7607
3491.440918 79.198 178.9104
3516.741455 79.152 -166.8921
3542.225098 79.104 -152.6699
3567.893555 79.051 -138.4221
3593.748047 79.002 -124.1353
3619.789795 78.968 -109.8030
3646.020264 78.953 -95.5039
3672.440918 78.950 -81.2844
3699.052979 78.945 -67.1038
3725.857910 78.933 -52.9099
3752.856934 78.917 -38.6685
3780.051758 78.904 -24.3906
3807.443604 78.898 -10.1484
