* Measurement data measured by REW V5.20
* Source: Headset (USB-C to 3.5mm Headphone Jack Adapter), MICROPHONE (Master Volume), R, volume: 0.260
* Format: 512k Log Swept Sine, 1 sweep with no timing reference
* Dated: Jan 16, 2021 6:11:48 PM
* REW Settings:
*  C-weighting compensation: Off
*  Target level: 75.0 dB
* Note: ; 
* Measurement: Galaxy Buds Pro Soft
* Smoothing: 1/48 octave
* Frequency Step: 1/24 octave
* Start Frequency: 20.600 Hz
*
* Freq(Hz)	SPL(dB)	Phase(degrees)
20.600000	87.379486	-108.7115
21.200001	87.454903	-110.5081
21.799999	87.485153	-112.1280
22.400000	87.537376	-113.8906
23.000000	87.638855	-115.3907
23.600000	87.659302	-116.7067
24.299999	87.673920	-118.6395
25.000000	87.771866	-119.9948
25.799999	87.784233	-121.4535
26.500000	87.775131	-122.6454
27.200001	87.803772	-124.0714
28.000000	87.968689	-126.1660
29.000000	87.863480	-128.1848
30.000000	87.852180	-129.6663
30.700001	87.920601	-130.8792
31.500000	87.982849	-132.2412
32.500000	87.971298	-133.7230
33.500000	88.003799	-134.7539
34.500000	87.945999	-136.1727
35.500000	87.897369	-137.9807
36.500000	87.955612	-139.3833
37.500000	88.040833	-139.8048
38.700001	88.048279	-141.9576
40.000000	87.982124	-142.9399
41.200001	88.027206	-144.6824
42.500000	88.026718	-146.2180
43.700001	88.045486	-147.1582
45.000000	87.968575	-148.5279
46.200001	87.995087	-149.5463
47.500000	87.863297	-151.3205
48.700001	87.833221	-152.6206
50.000000	87.785103	-153.9064
51.500000	87.739647	-154.9070
53.000000	87.768677	-155.6324
54.500000	87.737755	-156.6746
56.000000	87.638680	-157.8568
58.000000	87.584915	-159.6408
60.000000	87.612610	-159.7322
61.500000	87.673950	-160.7451
63.000000	87.546715	-162.2707
65.000000	87.660431	-163.1610
67.000000	87.603317	-164.4790
69.000000	87.647820	-165.2877
71.000000	87.525642	-165.5491
73.000000	87.522972	-166.8121
75.000000	87.526207	-168.4318
77.500000	87.422241	-168.5498
80.000000	87.419655	-170.1578
82.500000	87.352386	-170.2563
85.000000	87.212631	-171.4072
87.500000	87.241249	-172.8598
90.000000	87.198853	-173.5455
92.500000	87.022781	-174.1414
95.000000	87.022278	-174.5272
97.500000	87.039925	-174.8183
100.000000	86.961136	-176.4189
103.000000	87.039696	-177.1206
106.000000	87.028603	-177.5682
109.000000	87.058067	-178.1554
112.000000	86.897476	-178.9803
115.000000	86.784210	-179.2383
118.000000	86.763519	-179.2099
122.000000	86.798286	179.2810
125.000000	86.722038	178.3987
128.000000	86.743073	178.0334
132.000000	86.626572	177.8979
136.000000	86.518135	177.1329
140.000000	86.491661	176.3383
145.000000	86.360191	175.2960
150.000000	86.236588	175.4283
155.000000	86.216476	174.6822
160.000000	86.199379	174.0288
165.000000	86.130066	173.3661
170.000000	86.016922	173.0508
175.000000	85.967201	172.1743
180.000000	85.866554	172.2495
185.000000	85.838226	172.1204
190.000000	85.761917	171.1607
195.000000	85.759018	170.9112
200.000000	85.666267	171.1159
206.000000	85.540543	170.9451
212.000000	85.431213	170.3600
218.000000	85.334732	169.6333
224.000000	85.243118	169.7858
230.000000	85.154877	169.3937
236.000000	85.085312	169.2487
243.000000	85.095161	169.4695
250.000000	84.934303	168.7404
258.000000	84.926712	169.5967
265.000000	84.849731	169.3819
272.000000	84.921585	168.8128
280.000000	84.862526	168.3981
290.000000	84.739258	168.5902
300.000000	84.558975	168.0423
307.000000	84.592422	167.6810
315.000000	84.515060	167.2805
325.000000	84.427017	167.4251
335.000000	84.365509	167.4548
345.000000	84.232124	167.3161
355.000000	84.135307	167.1252
365.000000	84.110931	166.7383
375.000000	84.059814	166.7617
387.000000	83.909744	166.6437
400.000000	83.735947	166.6211
412.000000	83.667030	166.5411
425.000000	83.595573	166.2516
437.000000	83.437988	166.8406
450.000000	83.314415	166.3503
462.000000	83.155441	166.8015
475.000000	83.104126	166.6250
487.000000	83.035049	166.6919
500.000000	82.909081	166.8534
515.000000	82.805695	166.9760
530.000000	82.628448	167.3568
545.000000	82.505936	166.9998
560.000000	82.359924	167.8797
580.000000	82.227547	167.7651
600.000000	82.029854	168.2466
615.000000	81.905052	168.6968
630.000000	81.720718	169.2938
650.000000	81.588829	169.8090
670.000000	81.428459	170.5276
690.000000	81.283676	171.3115
710.000000	81.097992	172.0908
730.000000	80.978867	172.8654
750.000000	80.834251	174.0541
775.000000	80.676483	175.2705
800.000000	80.510559	176.5137
825.000000	80.389648	178.2341
850.000000	80.292107	179.6144
875.000000	80.194672	-178.8336
900.000000	80.125374	-177.2469
925.000000	80.067001	-175.6363
950.000000	80.006210	-173.8353
975.000000	79.993843	-172.5559
1000.000000	79.975601	-170.8745
1030.000000	80.003586	-169.1358
1060.000000	80.026550	-167.3377
1090.000000	80.098656	-165.9595
1120.000000	80.116997	-164.3414
1150.000000	80.174377	-163.1158
1180.000000	80.227623	-161.6696
1220.000000	80.330132	-160.0237
1250.000000	80.375175	-158.6285
1280.000000	80.440430	-157.4590
1320.000000	80.515877	-155.5943
1360.000000	80.669556	-154.1450
1400.000000	80.784119	-152.5755
1450.000000	80.951683	-150.6460
1500.000000	81.136322	-148.4874
1550.000000	81.360046	-146.6861
1600.000000	81.669930	-145.0424
1650.000000	81.906929	-143.2277
1700.000000	82.267998	-141.6754
1750.000000	82.575958	-140.7110
1800.000000	82.969559	-139.8986
1850.000000	83.332512	-139.2218
1900.000000	83.680023	-139.0473
1950.000000	84.039490	-139.1937
2000.000000	84.390999	-139.8050
2060.000000	84.714630	-140.8409
2120.000000	85.061111	-142.2928
2180.000000	85.442307	-144.3280
2240.000000	85.582748	-146.4563
2300.000000	85.766197	-148.8442
2360.000000	85.755188	-151.0623
2430.000000	85.735565	-153.5295
2500.000000	85.568298	-156.1019
2580.000000	85.298607	-157.4602
2650.000000	84.966545	-158.3925
2720.000000	84.731056	-158.5812
2800.000000	84.453339	-157.6175
2900.000000	84.188797	-155.8310
3000.000000	84.044044	-153.9956
3070.000000	84.049957	-152.8910
3150.000000	84.096077	-151.7960
3250.000000	84.253860	-150.9126
3350.000000	84.378510	-150.6116
3450.000000	84.455597	-150.5132
3550.000000	84.509277	-150.4862
3650.000000	84.670876	-150.4942
3750.000000	84.783417	-150.6185
3870.000000	84.845154	-151.0054
4000.000000	84.873070	-151.8871
4120.000000	84.844162	-152.7533
4250.000000	84.789276	-153.7817
4370.000000	84.708389	-154.6087
4500.000000	84.554794	-155.4517
4620.000000	84.513031	-156.3835
4750.000000	84.360886	-157.3310
4870.000000	84.080048	-157.9135
5000.000000	83.919991	-158.5231
5150.000000	83.658539	-158.7853
5300.000000	83.385056	-158.4966
5450.000000	83.154312	-158.1512
5600.000000	82.954971	-157.3459
5800.000000	82.768112	-156.1759
6000.000000	82.653374	-155.0404
6150.000000	82.545670	-154.2662
6300.000000	82.453506	-153.7466
6500.000000	82.347443	-153.6135
6700.000000	82.271957	-153.4715
6900.000000	82.228065	-153.8606
7100.000000	82.184608	-154.5935
7300.000000	82.097404	-155.8895
7500.000000	81.948799	-157.6838
7750.000000	81.527504	-160.1592
8000.000000	80.853584	-161.1172
8250.000000	80.544731	-158.4384
8500.000000	80.857750	-158.5652
8750.000000	80.772514	-162.6410
9000.000000	80.292618	-166.0381
9250.000000	79.747971	-167.1964
9500.000000	79.215042	-167.0695
9750.000000	78.767288	-166.2197
10000.000000	78.531738	-165.1432
10300.000000	78.392380	-164.4169
10600.000000	78.524216	-164.0768
10900.000000	78.723389	-164.7010
11200.000000	79.374207	-165.9062
11500.000000	80.116714	-172.3855
11800.000000	80.079071	177.6642
12200.000000	78.518066	172.8082
12500.000000	79.628441	-179.3517
12800.000000	81.449936	164.0212
13200.000000	80.028427	142.1154
13600.000000	78.042885	133.5540
14000.000000	76.755898	130.5750
14500.000000	76.385956	127.5557
15000.000000	76.606987	119.7489
15500.000000	78.043015	99.8254
16000.000000	78.758842	67.5713
16500.000000	78.029358	32.3848
17000.000000	76.633118	-2.6360
17500.000000	74.718826	-39.6495
18000.000000	72.121193	-76.2329
18500.000000	69.588516	-112.7292
19000.000000	67.679169	-153.4699
19500.000000	65.629662	155.8876
