* Measurement data measured by REW V5.20 Beta 24
* Source: Microphone (2- USB Sound Device        ), MICROPHONE (Master Volume), R, volume: 0.557
* Format: 1M Log Swept Sine, 1 sweep at 0.0 dBFS  Using a loopback as a timing reference
* Dated: Oct 5, 2019 11:12:24 AM
* REW Settings:
*  C-weighting compensation: Off
*  Target level: 75.0 dB
* Note: ; Delay 0.000 ms (0 mm, 0 in)  relative to Loopback with no timing offset
* Measurement: Shouer H27 - L
* Smoothing: 1/48 octave
* Frequency Step: 1/24 octave
* Start Frequency: 20.000 Hz
*
* Freq(Hz)	SPL(dB)	Phase(degrees)
20.000000	87.395958	175.9211
20.600000	87.427612	174.7170
21.200001	87.416397	173.6613
21.799999	87.390709	172.6175
22.400000	87.355644	171.4765
23.000000	87.312279	170.2638
23.600000	87.271622	169.0286
24.299999	87.237114	167.5495
25.000000	87.209473	166.0693
25.799999	87.189369	164.5203
26.500000	87.190353	163.2514
27.200001	87.190086	161.9871
28.000000	87.169243	160.6507
29.000000	87.131004	159.1675
30.000000	87.074867	157.7113
30.700001	87.026924	156.7381
31.500000	86.979141	155.6087
32.500000	86.919266	154.0948
33.500000	86.859940	152.6288
34.500000	86.822609	151.2045
35.500000	86.784508	149.7157
36.500000	86.717819	148.3856
37.500000	86.660294	147.3402
38.700001	86.617905	146.0271
40.000000	86.545723	144.4339
41.200001	86.459015	143.0682
42.500000	86.387863	141.6243
43.700001	86.317383	140.2674
45.000000	86.251625	138.9175
46.200001	86.187462	137.6936
47.500000	86.118904	136.4330
48.700001	86.042694	135.3131
50.000000	85.978020	134.1153
51.500000	85.874748	132.6425
53.000000	85.784767	131.2660
54.500000	85.691177	129.9682
56.000000	85.607651	128.6846
58.000000	85.498741	127.0711
60.000000	85.425385	125.7245
61.500000	85.309464	124.3803
63.000000	85.209755	123.4324
65.000000	85.104225	122.0956
67.000000	85.018204	120.7393
69.000000	84.943932	119.3455
71.000000	84.855942	117.8737
73.000000	84.767761	116.5479
75.000000	84.677147	115.1570
77.500000	84.570892	113.5084
80.000000	84.461624	112.0053
82.500000	84.340401	110.4049
85.000000	84.235985	108.8674
87.500000	84.141060	107.4572
90.000000	84.084167	106.0608
92.500000	83.921234	104.5974
95.000000	83.799042	103.1554
97.500000	83.701836	101.7288
100.000000	83.603821	100.3593
103.000000	83.473587	98.8523
106.000000	83.351372	97.3137
109.000000	83.228432	95.6844
112.000000	83.104820	94.2384
115.000000	82.985039	92.8262
118.000000	82.881493	91.4568
122.000000	82.728996	89.5474
125.000000	82.611359	88.2822
128.000000	82.491508	86.9708
132.000000	82.345840	85.2976
136.000000	82.205040	83.5932
140.000000	82.068863	81.9657
145.000000	81.883934	80.0624
150.000000	81.722893	78.2390
155.000000	81.556473	76.3857
160.000000	81.396461	74.5983
165.000000	81.240280	72.8891
170.000000	81.091988	71.2094
175.000000	80.956299	69.5328
180.000000	80.816422	67.9833
185.000000	80.668083	66.4191
190.000000	80.564270	64.9358
195.000000	80.439507	63.4587
200.000000	80.310608	62.0249
206.000000	80.166870	60.3340
212.000000	80.020546	58.7162
218.000000	79.879318	57.2278
224.000000	79.760887	55.7542
230.000000	79.661179	54.3768
236.000000	79.570847	52.9236
243.000000	79.494308	51.1602
250.000000	79.408600	49.3404
258.000000	79.301247	47.1636
265.000000	79.191055	45.3477
272.000000	79.084923	43.6247
280.000000	78.977921	41.6937
290.000000	78.842964	39.3846
300.000000	78.710182	36.9813
307.000000	78.637802	35.5207
315.000000	78.553123	33.8070
325.000000	78.453133	31.6155
335.000000	78.339035	29.5359
345.000000	78.276711	27.3718
355.000000	78.177811	25.3331
365.000000	78.097969	23.2452
375.000000	78.026306	21.3973
387.000000	77.942535	18.9930
400.000000	77.869774	16.4002
412.000000	77.804764	14.1790
425.000000	77.729218	11.6771
437.000000	77.665894	9.5491
450.000000	77.619576	7.2041
462.000000	77.563065	5.1611
475.000000	77.513718	2.9217
487.000000	77.484497	0.9300
500.000000	77.494591	-1.1652
515.000000	77.496918	-3.8381
530.000000	77.464600	-6.5247
545.000000	77.432625	-9.0656
560.000000	77.426033	-11.6177
580.000000	77.395927	-14.8044
600.000000	77.380501	-17.9460
615.000000	77.387695	-20.1617
630.000000	77.390640	-22.4063
650.000000	77.380821	-25.3457
670.000000	77.402824	-28.2081
690.000000	77.435585	-30.9140
710.000000	77.490753	-33.7214
730.000000	77.530548	-36.5504
750.000000	77.584572	-39.2991
775.000000	77.643272	-43.0738
800.000000	77.584457	-45.8820
825.000000	77.689224	-48.4417
850.000000	77.802902	-51.2140
875.000000	77.928017	-53.8643
900.000000	78.084816	-56.4535
925.000000	78.245644	-59.0520
950.000000	78.433990	-61.4330
975.000000	78.640862	-63.9014
1000.000000	78.832191	-66.4356
1030.000000	79.190048	-69.4007
1060.000000	79.544609	-72.3858
1090.000000	79.918152	-75.5350
1120.000000	80.316116	-78.8383
1150.000000	80.708260	-82.3363
1180.000000	81.126495	-85.9560
1220.000000	81.677322	-91.0150
1250.000000	82.071739	-94.9658
1280.000000	82.451797	-98.9688
1320.000000	82.957420	-104.3494
1360.000000	83.430283	-109.7211
1400.000000	83.904175	-115.0356
1450.000000	84.503334	-121.6589
1500.000000	85.099030	-128.1524
1550.000000	85.714828	-134.7107
1600.000000	86.354874	-141.3384
1650.000000	87.021072	-148.1523
1700.000000	87.699860	-155.2767
1750.000000	88.390732	-162.7840
1800.000000	89.064102	-170.7750
1850.000000	89.709045	-179.3063
1900.000000	90.288422	171.6094
1950.000000	90.768005	162.0825
2000.000000	91.118332	152.2587
2060.000000	91.361610	140.3250
2120.000000	91.386261	128.7699
2180.000000	91.237061	118.0093
2240.000000	90.956886	108.2749
2300.000000	90.599930	99.6989
2360.000000	90.216530	92.2333
2430.000000	89.777054	84.7687
2500.000000	89.387444	78.4529
2580.000000	89.029709	72.3169
2650.000000	88.804970	67.6638
2720.000000	88.670616	63.4286
2800.000000	88.619446	58.9159
2900.000000	88.689087	53.3880
3000.000000	88.847008	47.5623
3070.000000	88.975296	43.3918
3150.000000	89.101379	38.3693
3250.000000	89.206726	32.1451
3350.000000	89.250763	26.3787
3450.000000	89.267632	21.3152
3550.000000	89.315735	17.0003
3650.000000	89.456665	13.2637
3750.000000	89.719604	9.6774
3870.000000	90.210999	4.8324
4000.000000	90.857201	-2.2476
4120.000000	91.309608	-11.4195
4250.000000	91.221100	-23.1180
4370.000000	90.468140	-32.2721
4500.000000	89.299889	-37.5266
4620.000000	88.359222	-38.3098
4750.000000	87.737129	-36.7415
4870.000000	87.538635	-34.7989
5000.000000	87.621452	-33.4413
5150.000000	87.863144	-33.6924
5300.000000	88.009094	-35.6365
5450.000000	87.878174	-38.2323
5600.000000	87.485489	-40.1707
5800.000000	86.698303	-40.6693
6000.000000	85.780113	-38.3016
6150.000000	85.128906	-34.7836
6300.000000	84.578323	-30.0106
6500.000000	84.048439	-22.1428
6700.000000	83.764313	-13.1320
6900.000000	83.756256	-3.4130
7100.000000	84.010185	6.6163
7300.000000	84.555420	16.6487
7500.000000	85.482079	26.3843
7750.000000	87.394699	35.5445
8000.000000	90.129425	36.6967
8250.000000	91.768967	15.1283
8500.000000	88.724937	-4.4955
8750.000000	84.512909	-0.6527
9000.000000	81.196236	14.6497
9250.000000	78.723129	34.8910
9500.000000	76.895020	57.7442
9750.000000	75.572121	82.2886
10000.000000	74.688675	107.9529
10300.000000	74.162422	139.3205
10600.000000	74.193924	170.1332
10900.000000	74.697769	-161.9828
11200.000000	75.248421	-140.5556
11500.000000	74.443130	-126.0562
11800.000000	71.405579	-106.4434
12200.000000	65.411911	-54.9172
12500.000000	62.153259	13.1380
12800.000000	64.177505	81.2898
13200.000000	68.124115	141.5724
13600.000000	70.701843	-170.2961
14000.000000	72.369064	-123.7618
14500.000000	74.093681	-65.8267
15000.000000	75.419495	-12.7985
15500.000000	74.658791	36.4674
16000.000000	71.903160	100.6664
16500.000000	69.613739	-178.9795
17000.000000	68.744560	-91.5516
17500.000000	69.283157	-4.1420
18000.000000	70.675293	79.0288
18500.000000	72.605522	150.1670
19000.000000	72.936104	-150.4570
19500.000000	70.878197	-94.4004
