* Measurement data measured by REW V5.20
* Source: Headset (USB-C to 3.5mm Headphone Jack Adapter), MICROPHONE (Master Volume), R, volume: 0.260
* Format: 256k Log Swept Sine, 1 sweep at -6.0 dBFS with no timing reference
* Dated: Sep 8, 2021 8:57:27 PM
* REW Settings:
*  C-weighting compensation: Off
*  Target level: 75.0 dB
* Note: ; 
* Measurement: Helios R
* Smoothing: 1/48 octave
* Frequency Step: 1/24 octave
* Start Frequency: 20.600 Hz
*
* Freq(Hz)	SPL(dB)	Phase(degrees)
20.600000	78.710098	53.5372
21.200001	78.796005	50.9528
21.799999	78.829529	48.4090
22.400000	78.844543	45.9932
23.000000	78.870255	43.6887
23.600000	78.912071	41.4142
24.299999	78.952538	38.7956
25.000000	78.951286	36.3797
25.799999	78.914291	34.0356
26.500000	78.895187	32.1050
27.200001	78.883423	29.9266
28.000000	78.831009	27.2356
29.000000	78.732460	24.2106
30.000000	78.663879	21.4436
30.700001	78.615929	19.5788
31.500000	78.561859	17.6197
32.500000	78.493515	15.2084
33.500000	78.390121	12.7999
34.500000	78.298416	10.6208
35.500000	78.229919	8.4550
36.500000	78.117462	6.3453
37.500000	78.003410	4.4456
38.700001	77.904533	2.1748
40.000000	77.764709	-0.1598
41.200001	77.639175	-2.1425
42.500000	77.566078	-4.4114
43.700001	77.402733	-6.2160
45.000000	77.227135	-8.2008
46.200001	77.088974	-10.1840
47.500000	76.961510	-11.7189
48.700001	76.826401	-13.0988
50.000000	76.707565	-14.7534
51.500000	76.534088	-16.4495
53.000000	76.380638	-18.1720
54.500000	76.241386	-19.7259
56.000000	76.068321	-21.1236
58.000000	75.881638	-23.1748
60.000000	75.638367	-24.6046
61.500000	75.552208	-26.2724
63.000000	75.423492	-27.6236
65.000000	75.218506	-29.0933
67.000000	75.031532	-30.7318
69.000000	74.842575	-31.9730
71.000000	74.668526	-33.2958
73.000000	74.508324	-34.5592
75.000000	74.330818	-35.7375
77.500000	74.125259	-37.0629
80.000000	73.919479	-38.4416
82.500000	73.707748	-39.6335
85.000000	73.525162	-40.7093
87.500000	73.486740	-42.1972
90.000000	73.285927	-40.0635
92.500000	72.784485	-43.9783
95.000000	72.685883	-44.4751
97.500000	72.645538	-45.5948
100.000000	72.475883	-46.5265
103.000000	72.296654	-47.4235
106.000000	72.122818	-48.2249
109.000000	71.946228	-48.9685
112.000000	71.815140	-49.8232
115.000000	71.650215	-50.4613
118.000000	71.489426	-51.1805
122.000000	71.306038	-52.1026
125.000000	71.189201	-52.7077
128.000000	71.051697	-53.2544
132.000000	70.900620	-54.0436
136.000000	70.736908	-54.6027
140.000000	70.596886	-55.2807
145.000000	70.412216	-55.9551
150.000000	70.265945	-56.7165
155.000000	70.135124	-57.2686
160.000000	70.001740	-57.9436
165.000000	69.866570	-58.4604
170.000000	69.747025	-58.9808
175.000000	69.644417	-59.6246
180.000000	69.560211	-59.9168
185.000000	69.451057	-60.6007
190.000000	69.383102	-60.9807
195.000000	69.298988	-61.3959
200.000000	69.241859	-61.9331
206.000000	69.186340	-62.3277
212.000000	69.114456	-62.8720
218.000000	69.063553	-63.3415
224.000000	69.021309	-63.8493
230.000000	68.985870	-64.2726
236.000000	68.951332	-64.7420
243.000000	68.935295	-65.3482
250.000000	68.911148	-65.8822
258.000000	68.909393	-66.4856
265.000000	68.903107	-67.0806
272.000000	68.909966	-67.5947
280.000000	68.929199	-68.4804
290.000000	68.939583	-69.0176
300.000000	68.945122	-69.7891
307.000000	69.001221	-70.4389
315.000000	69.040779	-71.0858
325.000000	69.094589	-71.8627
335.000000	69.147125	-72.8035
345.000000	69.212967	-73.6620
355.000000	69.277687	-74.4912
365.000000	69.345924	-75.3809
375.000000	69.414368	-76.2432
387.000000	69.502632	-77.3704
400.000000	69.602333	-78.4962
412.000000	69.679642	-79.6041
425.000000	69.770164	-80.8164
437.000000	69.859062	-81.9141
450.000000	69.957848	-83.1207
462.000000	70.032585	-84.2620
475.000000	70.117493	-85.4729
487.000000	70.191498	-86.5761
500.000000	70.264351	-87.7583
515.000000	70.344429	-89.1067
530.000000	70.416153	-90.4537
545.000000	70.484512	-91.7159
560.000000	70.548454	-92.9879
580.000000	70.616287	-94.6679
600.000000	70.666763	-96.1939
615.000000	70.701271	-97.2687
630.000000	70.728294	-98.3441
650.000000	70.759537	-99.5587
670.000000	70.787003	-100.7359
690.000000	70.799690	-101.7653
710.000000	70.816383	-102.7332
730.000000	70.830261	-103.5385
750.000000	70.844307	-104.2840
775.000000	70.865982	-105.0630
800.000000	70.895126	-105.6391
825.000000	70.926659	-106.1395
850.000000	70.969604	-106.4485
875.000000	71.031227	-106.6885
900.000000	71.109108	-106.8286
925.000000	71.191780	-106.8729
950.000000	71.309586	-106.9500
975.000000	71.437546	-106.9966
1000.000000	71.578781	-107.0788
1030.000000	71.764137	-107.2487
1060.000000	71.965134	-107.4792
1090.000000	72.172562	-107.8159
1120.000000	72.380447	-108.2509
1150.000000	72.584633	-108.7913
1180.000000	72.785156	-109.3991
1220.000000	73.040688	-110.3087
1250.000000	73.217743	-111.0547
1280.000000	73.388107	-111.7652
1320.000000	73.601898	-112.7765
1360.000000	73.798508	-113.7146
1400.000000	73.990967	-114.6411
1450.000000	74.226730	-115.7283
1500.000000	74.454659	-116.7005
1550.000000	74.683960	-117.6888
1600.000000	74.919533	-118.6418
1650.000000	75.159920	-119.6113
1700.000000	75.407356	-120.6185
1750.000000	75.657127	-121.6410
1800.000000	75.913704	-122.7763
1850.000000	76.173691	-124.0036
1900.000000	76.434120	-125.3168
1950.000000	76.684792	-126.7403
2000.000000	76.932533	-128.2968
2060.000000	77.211029	-130.3568
2120.000000	77.464401	-132.5908
2180.000000	77.691475	-134.9753
2240.000000	77.875046	-137.4948
2300.000000	78.013092	-140.1065
2360.000000	78.095787	-142.6943
2430.000000	78.132202	-145.6293
2500.000000	78.113647	-148.3314
2580.000000	78.038132	-151.1159
2650.000000	77.933434	-153.2774
2720.000000	77.799446	-155.1272
2800.000000	77.621536	-156.7865
2900.000000	77.396301	-158.2280
3000.000000	77.194633	-159.0534
3070.000000	77.078285	-159.3388
3150.000000	76.965584	-159.4833
3250.000000	76.860367	-159.4847
3350.000000	76.761566	-159.3079
3450.000000	76.678635	-158.7852
3550.000000	76.646591	-157.9189
3650.000000	76.683311	-156.9192
3750.000000	76.793182	-155.9745
3870.000000	77.001747	-155.2269
4000.000000	77.286011	-155.1101
4120.000000	77.563293	-155.8563
4250.000000	77.790047	-157.8051
4370.000000	77.839409	-160.4138
4500.000000	77.629745	-163.4413
4620.000000	77.168571	-165.3092
4750.000000	76.531555	-164.9424
4870.000000	76.113647	-161.9874
5000.000000	76.186813	-157.5701
5150.000000	76.946106	-155.3524
5300.000000	77.748245	-158.9003
5450.000000	77.917206	-165.9477
5600.000000	77.425720	-172.3761
5800.000000	76.282425	-176.8585
6000.000000	75.247688	-177.2923
6150.000000	74.647942	-176.1107
6300.000000	74.221161	-174.3804
6500.000000	73.869926	-171.7994
6700.000000	73.692421	-169.4190
6900.000000	73.532700	-167.2611
7100.000000	73.316040	-163.8050
7300.000000	73.344025	-157.8198
7500.000000	74.000153	-151.3370
7750.000000	75.516533	-147.4673
8000.000000	77.074348	-150.8506
8250.000000	77.802818	-160.2454
8500.000000	77.297211	-169.8949
8750.000000	76.010849	-174.7918
9000.000000	74.627136	-174.6008
9250.000000	73.528732	-171.6645
9500.000000	72.730995	-168.5946
9750.000000	72.040550	-165.8602
10000.000000	71.510513	-163.6636
10300.000000	71.063164	-162.3752
10600.000000	70.796425	-163.0196
10900.000000	70.722191	-165.6169
11200.000000	70.822868	-169.8717
11500.000000	71.053490	-175.0491
11800.000000	71.460815	179.9500
12200.000000	72.352119	173.0757
12500.000000	73.149185	167.0672
12800.000000	73.906219	159.6833
13200.000000	74.527313	147.0976
13600.000000	74.363823	132.2015
14000.000000	73.222061	116.3424
14500.000000	70.353775	98.7031
15000.000000	66.462410	87.5045
15500.000000	64.744270	79.0310
16000.000000	63.863754	31.6349
16500.000000	62.420647	-15.0546
17000.000000	63.028931	-50.6268
17500.000000	64.374512	-77.4935
18000.000000	66.788002	-105.0211
18500.000000	69.138542	-148.3973
19000.000000	70.517677	151.9657
19500.000000	70.762337	64.3067
