* Measurement data measured by REW V5.20 Beta 59
* Source: Headset (USB-C to 3.5mm Headphone Jack Adapter), MICROPHONE (Master Volume), R, volume: 0.258. Timing signal peak level -62.4 dBFS, measurement signal peak level -30.5 dBFS
* Format: 512k Log Swept Sine, 1 sweep at -6.0 dBFS using an acoustic timing reference
* Dated: Sep 8, 2020 9:02:53 PM
* REW Settings:
*  C-weighting compensation: Off
*  Target level: 75.0 dB
* Note: ; Delay 0.0021 ms (0.72 mm, 0.03 in) using estimated IR delay relative to Acoustic reference on HEADPHONE R with no timing offset
* Measurement: Sony IER-M9 - L
* Smoothing: 1/48 octave
* Frequency Step: 1/24 octave
* Start Frequency: 20.600 Hz
*
* Freq(Hz)	SPL(dB)	Phase(degrees)
20.600000	85.856178	-130.1760
21.200001	85.851837	-131.4629
21.799999	85.889221	-132.8384
22.400000	85.937897	-133.9985
23.000000	85.954102	-135.0693
23.600000	85.974106	-136.1527
24.299999	85.999924	-137.3956
25.000000	86.001755	-138.7368
25.799999	85.997688	-140.2255
26.500000	86.010025	-141.3493
27.200001	86.003571	-142.3368
28.000000	85.981827	-143.5890
29.000000	85.983887	-145.1697
30.000000	85.970505	-146.6516
30.700001	85.976921	-147.5647
31.500000	85.982147	-148.6035
32.500000	85.991226	-149.9402
33.500000	85.987068	-151.1623
34.500000	85.987427	-152.3703
35.500000	85.976982	-153.4914
36.500000	85.961639	-154.6376
37.500000	85.941818	-155.6971
38.700001	85.917595	-156.9185
40.000000	85.906517	-158.3199
41.200001	85.873718	-159.4276
42.500000	85.840317	-160.6391
43.700001	85.799797	-161.6414
45.000000	85.785217	-162.7633
46.200001	85.724579	-163.7510
47.500000	85.698837	-164.7257
48.700001	85.652008	-165.6528
50.000000	85.607201	-166.5900
51.500000	85.548286	-167.6625
53.000000	85.492477	-168.7201
54.500000	85.436020	-169.6769
56.000000	85.397339	-170.6531
58.000000	85.356194	-171.8276
60.000000	85.302002	-173.1520
61.500000	85.284760	-173.8085
63.000000	85.251556	-174.6307
65.000000	85.198654	-175.6507
67.000000	85.149040	-176.6153
69.000000	85.099495	-177.5662
71.000000	85.044685	-178.4687
73.000000	84.988007	-179.3100
75.000000	84.931854	179.8389
77.500000	84.858147	178.8759
80.000000	84.783516	177.9258
82.500000	84.706055	177.0237
85.000000	84.618660	176.0978
87.500000	84.549995	175.3881
90.000000	84.443352	174.3898
92.500000	84.392799	173.8723
95.000000	84.314903	173.1840
97.500000	84.232643	172.5224
100.000000	84.153458	171.8874
103.000000	84.077805	171.1630
106.000000	84.005547	170.4736
109.000000	83.933777	169.8488
112.000000	83.858444	169.2048
115.000000	83.785721	168.6346
118.000000	83.712906	168.0782
122.000000	83.610268	167.3736
125.000000	83.538071	166.9053
128.000000	83.464203	166.4727
132.000000	83.365654	165.8982
136.000000	83.266487	165.3727
140.000000	83.171326	164.8731
145.000000	83.052277	164.3191
150.000000	82.934708	163.8118
155.000000	82.818565	163.3597
160.000000	82.704231	162.9465
165.000000	82.592262	162.5703
170.000000	82.499733	162.1612
175.000000	82.376106	161.9650
180.000000	82.275116	161.7051
185.000000	82.164490	161.4388
190.000000	82.063301	161.2310
195.000000	81.964195	161.0449
200.000000	81.868164	160.8758
206.000000	81.752258	160.7165
212.000000	81.644844	160.5837
218.000000	81.536575	160.4863
224.000000	81.432137	160.3984
230.000000	81.332527	160.3282
236.000000	81.234787	160.2971
243.000000	81.122620	160.2726
250.000000	81.016251	160.2740
258.000000	80.894485	160.2875
265.000000	80.793350	160.3365
272.000000	80.696381	160.3806
280.000000	80.589272	160.4671
290.000000	80.461319	160.5945
300.000000	80.342079	160.7397
307.000000	80.252983	160.8683
315.000000	80.160393	161.0151
325.000000	80.050758	161.2149
335.000000	79.944412	161.4308
345.000000	79.841034	161.6708
355.000000	79.743736	161.9095
365.000000	79.647995	162.1639
375.000000	79.558083	162.4133
387.000000	79.452377	162.7511
400.000000	79.343872	163.1231
412.000000	79.246384	163.4709
425.000000	79.146942	163.8479
437.000000	79.057892	164.2149
450.000000	78.963097	164.6254
462.000000	78.882233	165.0132
475.000000	78.797462	165.4212
487.000000	78.721008	165.8262
500.000000	78.640221	166.2698
515.000000	78.553123	166.7897
530.000000	78.468460	167.3167
545.000000	78.386749	167.8597
560.000000	78.308228	168.4318
580.000000	78.208687	169.1898
600.000000	78.117676	169.9849
615.000000	78.052887	170.6044
630.000000	77.992081	171.2327
650.000000	77.913681	172.0995
670.000000	77.844788	172.9959
690.000000	77.782463	173.9131
710.000000	77.731064	174.8733
730.000000	77.685379	175.8550
750.000000	77.649460	176.8397
775.000000	77.620468	178.1315
800.000000	77.610687	179.4334
825.000000	77.614418	-179.2536
850.000000	77.642258	-177.9575
875.000000	77.685532	-176.6668
900.000000	77.748055	-175.4160
925.000000	77.834305	-174.2432
950.000000	77.934525	-173.1490
975.000000	78.049347	-172.1374
1000.000000	78.178062	-171.2284
1030.000000	78.346138	-170.3060
1060.000000	78.521614	-169.5543
1090.000000	78.702629	-168.9955
1120.000000	78.878242	-168.5997
1150.000000	79.047417	-168.3395
1180.000000	79.208427	-168.2218
1220.000000	79.403801	-168.1936
1250.000000	79.537987	-168.2541
1280.000000	79.658127	-168.3537
1320.000000	79.804771	-168.5309
1360.000000	79.933502	-168.7271
1400.000000	80.050117	-168.9269
1450.000000	80.187210	-169.1550
1500.000000	80.315865	-169.3820
1550.000000	80.438950	-169.5719
1600.000000	80.562103	-169.7775
1650.000000	80.686432	-169.9961
1700.000000	80.810036	-170.2493
1750.000000	80.934296	-170.5544
1800.000000	81.058167	-170.9151
1850.000000	81.180328	-171.3217
1900.000000	81.301353	-171.8162
1950.000000	81.416061	-172.3700
2000.000000	81.523026	-173.0141
2060.000000	81.637009	-173.8898
2120.000000	81.727730	-174.8579
2180.000000	81.793564	-175.8918
2240.000000	81.824959	-176.9555
2300.000000	81.821190	-177.9964
2360.000000	81.776115	-178.9371
2430.000000	81.673325	-179.7902
2500.000000	81.523659	179.7843
2580.000000	81.323860	-179.9563
2650.000000	81.160728	-178.9483
2720.000000	81.060509	-177.1645
2800.000000	81.091362	-174.3251
2900.000000	81.445801	-170.3333
3000.000000	82.172592	-167.1296
3070.000000	82.849670	-166.0251
3150.000000	83.709198	-166.2698
3250.000000	84.776169	-168.9627
3350.000000	85.683052	-174.0877
3450.000000	86.287720	178.9754
3550.000000	86.492912	171.2924
3650.000000	86.301964	164.2542
3750.000000	85.854843	159.0204
3870.000000	85.266853	155.4221
4000.000000	84.821899	153.6007
4120.000000	84.649124	152.3743
4250.000000	84.647293	150.2821
4370.000000	84.678497	147.0714
4500.000000	84.577866	142.3803
4620.000000	84.274887	137.6478
4750.000000	83.716476	132.8673
4870.000000	83.030716	129.2880
5000.000000	82.171455	126.6299
5150.000000	81.132385	125.2775
5300.000000	80.147339	125.5916
5450.000000	79.292267	127.1257
5600.000000	78.594673	129.2172
5800.000000	77.824715	132.0854
6000.000000	77.108253	135.2689
6150.000000	76.624496	138.2569
6300.000000	76.223976	141.7178
6500.000000	75.844109	146.9521
6700.000000	75.724503	152.8577
6900.000000	75.935928	158.1843
7100.000000	76.333923	162.2706
7300.000000	76.845688	165.0727
7500.000000	77.389175	166.5574
7750.000000	77.973213	166.7675
8000.000000	78.314972	166.9942
8250.000000	78.750847	169.2077
8500.000000	79.702583	171.3516
8750.000000	81.042633	170.3848
9000.000000	82.419273	164.8907
9250.000000	83.391281	155.1417
9500.000000	83.641083	143.8482
9750.000000	83.318298	134.4971
10000.000000	82.871902	128.1429
10300.000000	82.620132	122.7908
10600.000000	82.842682	117.1078
10900.000000	83.438950	108.4571
11200.000000	84.072647	94.9320
11500.000000	84.211647	76.7606
11800.000000	83.545372	57.3923
12200.000000	81.851685	34.9094
12500.000000	80.382034	20.7355
12800.000000	78.888153	8.4933
13200.000000	77.027359	-5.8527
13600.000000	75.253700	-19.1918
14000.000000	73.519463	-31.2832
14500.000000	71.688858	-44.8300
15000.000000	70.553223	-59.9658
15500.000000	70.219330	-81.3174
16000.000000	70.537048	-113.9819
16500.000000	70.928757	-161.5048
17000.000000	70.399567	138.8353
17500.000000	68.434402	78.6960
18000.000000	65.996109	26.7197
18500.000000	64.451126	-22.1964
19000.000000	63.515774	-82.0776
19500.000000	61.421410	-158.0005
