* Measurement data measured by REW V5.20 Beta 59
* Source: Headset (USB-C to 3.5mm Headphone Jack Adapter), MICROPHONE (Master Volume), R, volume: 0.258. Timing signal peak level -32.4 dBFS, measurement signal peak level -29.4 dBFS
* Format: 512k Log Swept Sine, 1 sweep at -6.0 dBFS using an acoustic timing reference
* Dated: Sep 8, 2020 9:03:30 PM
* REW Settings:
*  C-weighting compensation: Off
*  Target level: 75.0 dB
* Note: ; Delay -0.0656 ms (-22 mm, -0.89 in) using estimated IR delay relative to Acoustic reference on HEADPHONE R with no timing offset
* Measurement: Sony IER-M9 - R
* Smoothing: 1/48 octave
* Frequency Step: 1/24 octave
* Start Frequency: 20.600 Hz
*
* Freq(Hz)	SPL(dB)	Phase(degrees)
20.600000	85.905006	-130.0242
21.200001	85.936516	-131.3563
21.799999	85.966354	-132.5546
22.400000	85.973557	-133.6427
23.000000	85.991821	-134.7416
23.600000	86.014465	-135.7324
24.299999	86.009544	-137.0553
25.000000	86.024666	-138.3858
25.799999	86.022995	-139.5976
26.500000	86.057053	-140.7324
27.200001	86.075714	-141.5884
28.000000	86.029266	-142.9571
29.000000	86.030930	-144.2816
30.000000	85.984871	-145.6495
30.700001	86.010895	-146.6929
31.500000	86.002357	-147.6237
32.500000	86.012550	-148.8600
33.500000	86.007477	-150.0109
34.500000	86.009171	-151.1422
35.500000	86.005089	-152.2415
36.500000	85.993256	-153.2555
37.500000	85.982025	-154.3007
38.700001	85.953087	-155.4261
40.000000	85.936577	-156.6947
41.200001	85.923882	-157.6826
42.500000	85.879677	-158.7227
43.700001	85.851677	-159.7397
45.000000	85.806778	-160.7395
46.200001	85.774132	-161.7254
47.500000	85.736252	-162.6895
48.700001	85.689476	-163.5186
50.000000	85.653938	-164.4212
51.500000	85.598785	-165.4026
53.000000	85.563484	-166.3858
54.500000	85.494102	-167.2309
56.000000	85.459084	-168.0649
58.000000	85.427834	-169.2407
60.000000	85.391602	-170.4158
61.500000	85.355148	-170.9287
63.000000	85.339142	-171.6811
65.000000	85.285042	-172.6553
67.000000	85.263756	-173.5666
69.000000	85.209351	-174.5111
71.000000	85.147614	-175.0763
73.000000	85.100441	-175.9662
75.000000	85.054512	-176.7412
77.500000	84.995117	-177.6782
80.000000	84.917252	-178.5121
82.500000	84.852074	-179.2563
85.000000	84.778297	-179.9961
87.500000	84.705971	179.2265
90.000000	84.639755	178.5335
92.500000	84.562653	177.9088
95.000000	84.486343	177.2390
97.500000	84.417397	176.6786
100.000000	84.343933	176.1781
103.000000	84.273972	175.5350
106.000000	84.208733	174.8937
109.000000	84.143105	174.3551
112.000000	84.079384	173.8218
115.000000	84.010025	173.3337
118.000000	83.943359	172.8649
122.000000	83.846733	172.2415
125.000000	83.781021	171.8597
128.000000	83.710831	171.4858
132.000000	83.621468	171.0275
136.000000	83.538101	170.5645
140.000000	83.438591	170.1844
145.000000	83.331894	169.7549
150.000000	83.215775	169.3513
155.000000	83.110443	168.9823
160.000000	82.994743	168.7185
165.000000	82.894531	168.4619
170.000000	82.790092	168.2172
175.000000	82.686691	168.2210
180.000000	82.564117	167.8923
185.000000	82.492897	167.7873
190.000000	82.383347	167.6075
195.000000	82.289871	167.5175
200.000000	82.185989	167.5602
206.000000	82.110962	167.5498
212.000000	81.982681	167.3718
218.000000	81.884308	167.5154
224.000000	81.773415	167.7242
230.000000	81.674927	167.6960
236.000000	81.569763	167.7951
243.000000	81.465073	167.9849
250.000000	81.357986	168.1470
258.000000	81.236115	168.3789
265.000000	81.137192	168.5840
272.000000	81.040878	168.8110
280.000000	80.934219	169.0771
290.000000	80.803566	169.4769
300.000000	80.674988	169.8938
307.000000	80.598473	170.1953
315.000000	80.510109	170.5749
325.000000	80.395264	171.0338
335.000000	80.288078	171.5162
345.000000	80.184631	172.0189
355.000000	80.087654	172.5192
365.000000	79.992157	173.0571
375.000000	79.901642	173.5728
387.000000	79.796837	174.2333
400.000000	79.690887	174.9589
412.000000	79.595932	175.6543
425.000000	79.496445	176.3956
437.000000	79.406967	177.0936
450.000000	79.316727	177.8553
462.000000	79.237839	178.5766
475.000000	79.153870	179.3565
487.000000	79.081116	-179.9034
500.000000	79.003967	-179.1193
515.000000	78.920662	-178.1893
530.000000	78.838158	-177.2518
545.000000	78.762299	-176.2986
560.000000	78.689034	-175.3247
580.000000	78.597740	-174.0132
600.000000	78.512215	-172.6857
615.000000	78.450363	-171.6761
630.000000	78.394417	-170.6675
650.000000	78.327713	-169.2697
670.000000	78.263947	-167.8586
690.000000	78.206604	-166.4312
710.000000	78.157265	-164.9633
730.000000	78.120155	-163.4888
750.000000	78.088531	-161.9720
775.000000	78.064896	-160.0569
800.000000	78.057220	-158.1167
825.000000	78.069321	-156.1640
850.000000	78.098801	-154.2174
875.000000	78.145172	-152.2835
900.000000	78.215813	-150.3950
925.000000	78.304665	-148.5615
950.000000	78.411285	-146.8065
975.000000	78.533630	-145.1297
1000.000000	78.670563	-143.5838
1030.000000	78.845459	-141.8890
1060.000000	79.032150	-140.3815
1090.000000	79.224174	-139.0510
1120.000000	79.410805	-137.8938
1150.000000	79.592155	-136.9051
1180.000000	79.763023	-136.0236
1220.000000	79.972237	-135.0215
1250.000000	80.113869	-134.3461
1280.000000	80.244873	-133.7028
1320.000000	80.404129	-132.9183
1360.000000	80.546562	-132.1286
1400.000000	80.678627	-131.3483
1450.000000	80.831039	-130.3712
1500.000000	80.975479	-129.3958
1550.000000	81.117577	-128.4174
1600.000000	81.257683	-127.4516
1650.000000	81.397156	-126.5092
1700.000000	81.539337	-125.6044
1750.000000	81.680214	-124.7528
1800.000000	81.821213	-123.9856
1850.000000	81.961899	-123.2888
1900.000000	82.098137	-122.6808
1950.000000	82.228424	-122.1554
2000.000000	82.349304	-121.7341
2060.000000	82.479744	-121.3536
2120.000000	82.584496	-121.1019
2180.000000	82.658752	-120.9526
2240.000000	82.694702	-120.8745
2300.000000	82.684441	-120.8156
2360.000000	82.624275	-120.6908
2430.000000	82.483307	-120.3346
2500.000000	82.268616	-119.5479
2580.000000	81.952141	-117.8140
2650.000000	81.648880	-115.2796
2720.000000	81.384644	-111.6018
2800.000000	81.237267	-106.0101
2900.000000	81.470459	-97.7448
3000.000000	82.276291	-89.9890
3070.000000	83.123688	-86.0494
3150.000000	84.249817	-83.7662
3250.000000	85.657684	-84.5569
3350.000000	86.797279	-88.9548
3450.000000	87.448250	-95.7413
3550.000000	87.509972	-103.0667
3650.000000	87.050339	-109.0024
3750.000000	86.284698	-112.2452
3870.000000	85.333588	-112.4066
4000.000000	84.579956	-109.6342
4120.000000	84.213173	-106.1704
4250.000000	84.096664	-102.8168
4370.000000	84.134239	-100.7370
4500.000000	84.200363	-99.7665
4620.000000	84.191269	-99.9475
4750.000000	84.014145	-100.9572
4870.000000	83.644150	-102.0729
5000.000000	83.029861	-102.7316
5150.000000	82.132553	-102.0609
5300.000000	81.171280	-99.5871
5450.000000	80.268898	-95.5740
5600.000000	79.492004	-90.6411
5800.000000	78.610046	-83.5401
6000.000000	77.809990	-75.9015
6150.000000	77.271225	-69.6415
6300.000000	76.803871	-62.9532
6500.000000	76.304276	-53.4638
6700.000000	75.993439	-43.3230
6900.000000	75.911148	-33.1464
7100.000000	76.035126	-22.9971
7300.000000	76.453453	-13.4831
7500.000000	77.083344	-6.0204
7750.000000	77.688332	-0.0072
8000.000000	77.792282	6.0889
8250.000000	77.845459	15.8276
8500.000000	78.571724	27.4724
8750.000000	79.976555	36.4820
9000.000000	81.679443	40.6856
9250.000000	83.254868	39.2915
9500.000000	84.185265	33.4068
9750.000000	84.238350	27.0237
10000.000000	83.771912	23.6185
10300.000000	83.221222	23.3576
10600.000000	83.066322	24.2873
10900.000000	83.286209	22.8774
11200.000000	83.377808	16.4683
11500.000000	82.387146	7.4207
11800.000000	80.323921	8.6742
12200.000000	81.169144	19.3299
12500.000000	82.098770	10.2755
12800.000000	81.842606	0.7526
13200.000000	81.371796	-8.5349
13600.000000	81.115097	-20.3814
14000.000000	80.251472	-37.1674
14500.000000	77.676384	-56.9166
15000.000000	74.634331	-69.9000
15500.000000	72.289024	-80.8238
16000.000000	71.058014	-95.9274
16500.000000	71.005241	-120.1085
17000.000000	71.609360	-156.8802
17500.000000	71.571548	155.2705
18000.000000	70.049667	105.3028
18500.000000	67.859406	56.3539
19000.000000	64.930176	0.3179
19500.000000	60.090572	-63.1222
