* Measurement data measured by REW V5.20
* Source: Headset (USB-C to 3.5mm Headphone Jack Adapter), MICROPHONE (Master Volume), R, volume: 0.260
* Format: 256k Log Swept Sine, 1 sweep at -6.0 dBFS with no timing reference
* Dated: Jan 27, 2021 2:09:07 PM
* REW Settings:
*  C-weighting compensation: Off
*  Target level: 75.0 dB
* Note: ; 
* Measurement: Aune Jasper - L
* Smoothing: 1/48 octave
* Frequency Step: 1/24 octave
* Start Frequency: 20.600 Hz
*
* Freq(Hz)	SPL(dB)	Phase(degrees)
20.600000	78.042084	-107.2010
21.200001	78.124832	-108.9369
21.799999	78.255539	-110.3797
22.400000	78.456718	-112.0830
23.000000	78.638733	-114.0365
23.600000	78.761131	-115.5644
24.299999	78.904823	-116.5974
25.000000	79.052460	-117.8823
25.799999	79.125900	-120.1334
26.500000	79.204613	-122.2959
27.200001	79.337929	-124.4444
28.000000	79.436684	-125.6962
29.000000	79.621170	-126.0608
30.000000	79.481674	-129.7753
30.700001	79.125092	-131.6440
31.500000	79.250580	-131.5856
32.500000	79.894302	-133.2500
33.500000	80.041092	-134.5254
34.500000	80.006180	-135.5671
35.500000	80.047752	-137.4335
36.500000	80.282150	-139.3082
37.500000	80.299866	-139.4297
38.700001	80.252495	-142.3277
40.000000	79.398048	-146.6885
41.200001	80.238998	-144.2141
42.500000	80.635971	-146.6197
43.700001	80.457794	-146.8386
45.000000	80.552032	-148.7050
46.200001	80.683624	-149.2204
47.500000	80.525162	-150.4432
48.700001	80.499237	-150.9652
50.000000	80.593857	-151.7995
51.500000	80.593277	-153.3843
53.000000	80.695770	-155.1234
54.500000	80.660904	-155.5993
56.000000	80.693741	-156.9232
58.000000	80.565720	-158.0650
60.000000	80.749924	-159.9869
61.500000	81.024818	-150.4064
63.000000	80.806969	-158.8737
65.000000	80.793625	-162.9349
67.000000	80.703476	-162.7107
69.000000	80.739746	-164.1935
71.000000	80.685738	-165.0332
73.000000	80.686066	-165.9801
75.000000	80.657188	-166.7773
77.500000	80.665421	-167.7573
80.000000	80.630112	-168.7410
82.500000	80.603531	-169.7034
85.000000	80.634094	-170.7867
87.500000	80.553558	-171.3670
90.000000	80.516655	-172.1787
92.500000	80.503113	-174.5168
95.000000	80.475655	-173.5633
97.500000	80.435539	-174.2787
100.000000	80.398773	-175.0359
103.000000	80.379089	-175.6189
106.000000	80.319260	-176.2079
109.000000	80.269356	-176.9081
112.000000	80.232796	-177.5217
115.000000	80.173462	-178.2544
118.000000	80.139183	-178.7647
122.000000	80.068710	-179.3431
125.000000	80.013550	-179.8893
128.000000	79.969391	179.6404
132.000000	79.899826	179.0427
136.000000	79.834030	178.4978
140.000000	79.769875	178.0413
145.000000	79.666809	177.3280
150.000000	79.600159	176.8127
155.000000	79.510742	176.4110
160.000000	79.444427	176.0106
165.000000	79.358948	175.5319
170.000000	79.286812	175.1316
175.000000	79.200211	174.9258
180.000000	79.112106	174.6763
185.000000	79.092728	174.7084
190.000000	78.954834	174.1031
195.000000	78.869148	173.8806
200.000000	78.821854	173.7706
206.000000	78.729980	173.6453
212.000000	78.630585	173.2026
218.000000	78.562576	172.9292
224.000000	78.472832	173.4793
230.000000	78.359711	173.0737
236.000000	78.282730	173.1832
243.000000	78.119614	172.9155
250.000000	78.094208	173.3168
258.000000	77.988922	173.1747
265.000000	77.889076	173.1982
272.000000	77.795578	173.3424
280.000000	77.709557	173.3922
290.000000	77.589081	173.8176
300.000000	77.464813	174.0260
307.000000	77.335373	174.0886
315.000000	77.305679	174.4635
325.000000	77.213112	174.7596
335.000000	77.115059	175.0510
345.000000	77.019669	175.5512
355.000000	76.910011	175.7903
365.000000	76.830276	176.3263
375.000000	76.747856	176.6160
387.000000	76.659836	177.2207
400.000000	76.558449	177.9467
412.000000	76.457764	178.4731
425.000000	76.387794	179.2345
437.000000	76.305908	179.8702
450.000000	76.221390	-179.4280
462.000000	76.143700	-178.8236
475.000000	76.076508	-178.0061
487.000000	76.004494	-177.3515
500.000000	75.951683	-176.6322
515.000000	75.875748	-175.7592
530.000000	75.816757	-174.7727
545.000000	75.753090	-173.8500
560.000000	75.689438	-172.9215
580.000000	75.636612	-171.6923
600.000000	75.571098	-170.4270
615.000000	75.538765	-169.5055
630.000000	75.487305	-168.5835
650.000000	75.419746	-167.1769
670.000000	75.387161	-165.6593
690.000000	75.367119	-164.1677
710.000000	75.357964	-162.6666
730.000000	75.357422	-161.2012
750.000000	75.366600	-159.7794
775.000000	75.379501	-157.8741
800.000000	75.412682	-156.0157
825.000000	75.468185	-153.9944
850.000000	75.561699	-152.0502
875.000000	75.670364	-150.2226
900.000000	75.792480	-148.4038
925.000000	75.931648	-146.6797
950.000000	76.088638	-145.0370
975.000000	76.265434	-143.4723
1000.000000	76.454781	-142.0207
1030.000000	76.694756	-140.4547
1060.000000	76.949997	-139.0816
1090.000000	77.201859	-137.8769
1120.000000	77.454842	-136.8699
1150.000000	77.705956	-136.0244
1180.000000	77.944489	-135.3257
1220.000000	78.244675	-134.5640
1250.000000	78.454132	-134.0803
1280.000000	78.653687	-133.6327
1320.000000	78.900696	-133.0990
1360.000000	79.132385	-132.5830
1400.000000	79.355736	-132.0572
1450.000000	79.622566	-131.4253
1500.000000	79.882912	-130.7594
1550.000000	80.144241	-130.0863
1600.000000	80.406883	-129.4234
1650.000000	80.677635	-128.7787
1700.000000	80.954613	-128.1585
1750.000000	81.243172	-127.6056
1800.000000	81.539574	-127.1036
1850.000000	81.844589	-126.6966
1900.000000	82.162224	-126.3881
1950.000000	82.486946	-126.2053
2000.000000	82.816696	-126.1553
2060.000000	83.225220	-126.2900
2120.000000	83.634460	-126.6755
2180.000000	84.043724	-127.3226
2240.000000	84.446098	-128.2605
2300.000000	84.834198	-129.5017
2360.000000	85.198914	-131.0281
2430.000000	85.582123	-133.1545
2500.000000	85.909050	-135.5988
2580.000000	86.200691	-138.6594
2650.000000	86.376312	-141.4636
2720.000000	86.480446	-144.2465
2800.000000	86.516663	-147.2773
2900.000000	86.466614	-150.6702
3000.000000	86.341736	-153.5339
3070.000000	86.228958	-155.2057
3150.000000	86.091789	-156.8131
3250.000000	85.919678	-158.4690
3350.000000	85.758301	-159.8108
3450.000000	85.610802	-160.9432
3550.000000	85.477180	-161.9724
3650.000000	85.350632	-162.9372
3750.000000	85.226730	-163.8978
3870.000000	85.048851	-165.1064
4000.000000	84.680359	-165.0680
4120.000000	84.928459	-165.2026
4250.000000	84.828346	-167.1494
4370.000000	84.707458	-168.4726
4500.000000	84.577057	-169.8839
4620.000000	84.446793	-171.2983
4750.000000	84.284966	-172.9792
4870.000000	84.101234	-174.6667
5000.000000	83.855118	-176.5972
5150.000000	83.497002	-178.8131
5300.000000	83.060020	179.1443
5450.000000	82.561691	177.4001
5600.000000	82.028381	175.9504
5800.000000	81.252731	174.0095
6000.000000	80.201042	172.1006
6150.000000	79.162209	172.5764
6300.000000	78.201851	175.5700
6500.000000	77.334145	-178.6566
6700.000000	76.861275	-172.9644
6900.000000	76.628136	-168.0507
7100.000000	76.528824	-163.9657
7300.000000	76.507217	-160.8247
7500.000000	76.481483	-158.2411
7750.000000	76.485901	-155.2450
8000.000000	76.598671	-152.3940
8250.000000	76.871323	-149.9804
8500.000000	77.364555	-148.5492
8750.000000	78.086578	-149.1275
9000.000000	78.907776	-152.8625
9250.000000	79.577736	-160.5887
9500.000000	79.692230	-171.7898
9750.000000	79.010132	176.5296
10000.000000	77.704178	167.5093
10300.000000	75.844994	161.5084
10600.000000	74.102570	159.5837
10900.000000	72.625687	160.0474
11200.000000	71.443771	161.8802
11500.000000	70.555176	164.3852
11800.000000	69.934280	166.9886
12200.000000	69.508064	170.2948
12500.000000	69.501190	172.1531
12800.000000	69.748817	173.2393
13200.000000	70.519257	172.9465
13600.000000	71.881165	169.5638
14000.000000	73.961678	160.4412
14500.000000	77.248428	132.0334
15000.000000	77.443932	78.3878
15500.000000	73.590195	38.7490
16000.000000	70.194878	13.9565
16500.000000	67.971291	-8.8098
17000.000000	66.710556	-34.7518
17500.000000	66.309937	-66.9509
18000.000000	66.724777	-108.4286
18500.000000	67.710732	-164.8371
19000.000000	68.145256	117.6500
19500.000000	65.974869	21.7606
