* Measurement data measured by REW V5.20 Beta 59
* Source: Headset (USB-C to 3.5mm Headphone Jack Adapter), MICROPHONE (Master Volume), R, volume: 0.625
* Format: 512k Log Swept Sine, 1 sweep with no timing reference
* Dated: Aug 26, 2020 8:52:27 PM
* REW Settings:
*  C-weighting compensation: Off
*  Target level: 75.0 dB
* Note: ; 
* Measurement: Audeze i4 - Cipher
* Smoothing: 1/48 octave
* Frequency Step: 1/24 octave
* Start Frequency: 20.600 Hz
*
* Freq(Hz)	SPL(dB)	Phase(degrees)
20.600000	80.934967	-106.2880
21.200001	80.926086	-108.4930
21.799999	80.937103	-111.5756
22.400000	81.196495	-116.1603
23.000000	81.414391	-119.8759
23.600000	81.368378	-121.5735
24.299999	81.463181	-123.0156
25.000000	81.861160	-125.6913
25.799999	82.016602	-130.1783
26.500000	82.115471	-132.4816
27.200001	82.259010	-133.9740
28.000000	82.382919	-138.3255
29.000000	82.376762	-142.0907
30.000000	82.446236	-144.8461
30.700001	82.560913	-147.5523
31.500000	82.545441	-150.4038
32.500000	82.633347	-152.8100
33.500000	82.724899	-156.0150
34.500000	82.751488	-158.8741
35.500000	82.731354	-161.0118
36.500000	82.776596	-163.4507
37.500000	82.746567	-165.9203
38.700001	82.805862	-168.6708
40.000000	82.823341	-171.3526
41.200001	82.844925	-174.5681
42.500000	82.802887	-177.3138
43.700001	82.828377	-179.7555
45.000000	82.746185	178.0705
46.200001	82.765190	179.5384
47.500000	82.748451	173.5083
48.700001	82.667191	171.2373
50.000000	82.738029	168.4005
51.500000	82.741661	165.7231
53.000000	82.648758	163.8787
54.500000	82.689880	161.6660
56.000000	82.582169	159.6684
58.000000	82.487717	155.9849
60.000000	82.635292	153.6504
61.500000	82.538254	151.1329
63.000000	82.487473	149.2119
65.000000	82.467087	146.3864
67.000000	82.373215	143.5799
69.000000	82.332977	141.4206
71.000000	82.259247	138.4612
73.000000	82.197189	135.7747
75.000000	82.146790	133.4567
77.500000	82.028778	130.3542
80.000000	81.974976	127.4928
82.500000	81.897560	124.6031
85.000000	81.847534	121.7562
87.500000	81.737022	119.1200
90.000000	81.709938	116.6813
92.500000	81.595932	113.6626
95.000000	81.501114	110.9125
97.500000	81.423309	108.2392
100.000000	81.318352	105.2526
103.000000	81.226051	102.5614
106.000000	81.141548	99.6068
109.000000	81.070854	96.5365
112.000000	80.951637	94.3604
115.000000	80.881767	90.6342
118.000000	80.753288	88.0620
122.000000	80.614098	84.0929
125.000000	80.572227	80.6966
128.000000	80.454369	78.2921
132.000000	80.357918	74.5495
136.000000	80.219215	70.9663
140.000000	80.095886	67.6302
145.000000	79.991951	63.1031
150.000000	79.890892	58.7704
155.000000	79.770798	54.3883
160.000000	79.606659	50.2195
165.000000	79.531578	45.9639
170.000000	79.370712	41.6290
175.000000	79.310616	37.7657
180.000000	79.250275	33.6104
185.000000	79.129654	29.8796
190.000000	79.042648	26.1039
195.000000	78.977081	22.3846
200.000000	78.853500	18.6725
206.000000	78.812790	14.1479
212.000000	78.732552	9.7273
218.000000	78.645714	5.8680
224.000000	78.602661	1.8452
230.000000	78.532951	-2.2266
236.000000	78.465065	-6.0035
243.000000	78.398567	-10.2184
250.000000	78.370041	-14.2264
258.000000	78.295662	-18.9460
265.000000	78.255981	-22.8029
272.000000	78.188972	-26.3699
280.000000	78.162285	-30.1619
290.000000	78.100090	-34.7969
300.000000	78.111656	-39.3071
307.000000	78.067078	-42.1304
315.000000	78.059326	-45.1561
325.000000	78.031784	-48.9673
335.000000	78.064438	-52.4225
345.000000	78.030632	-55.6414
355.000000	78.022903	-58.6523
365.000000	78.038475	-61.5178
375.000000	78.036499	-64.3254
387.000000	78.070068	-67.2116
400.000000	78.093666	-70.2432
412.000000	78.127579	-72.7692
425.000000	78.162994	-75.2742
437.000000	78.204086	-77.5350
450.000000	78.257156	-79.6911
462.000000	78.313911	-81.6439
475.000000	78.368950	-83.5677
487.000000	78.430267	-85.2402
500.000000	78.501877	-86.8936
515.000000	78.594994	-88.6455
530.000000	78.698883	-90.4849
545.000000	78.797554	-91.9945
560.000000	78.911118	-93.4982
580.000000	79.064667	-95.3630
600.000000	79.228020	-97.1311
615.000000	79.352715	-98.3568
630.000000	79.482971	-99.5840
650.000000	79.661766	-101.2151
670.000000	79.865829	-102.7072
690.000000	80.037102	-104.1976
710.000000	80.242798	-105.7606
730.000000	80.439926	-107.3073
750.000000	80.639610	-108.8804
775.000000	80.888031	-110.9008
800.000000	81.101410	-113.0026
825.000000	81.305824	-115.1530
850.000000	81.486778	-117.3787
875.000000	81.632515	-119.5874
900.000000	81.745193	-121.7735
925.000000	81.822296	-123.8328
950.000000	81.863228	-125.7033
975.000000	81.876823	-127.3539
1000.000000	81.873299	-128.6455
1030.000000	81.881798	-129.7273
1060.000000	81.925461	-130.3256
1090.000000	82.040344	-130.6619
1120.000000	82.229790	-130.9760
1150.000000	82.484543	-131.4916
1180.000000	82.780594	-132.2915
1220.000000	83.218102	-133.8970
1250.000000	83.556747	-135.5848
1280.000000	83.879211	-137.7028
1320.000000	84.266670	-141.0769
1360.000000	84.575851	-145.0477
1400.000000	84.771706	-149.5121
1450.000000	84.819824	-155.1827
1500.000000	84.666275	-160.5067
1550.000000	84.361458	-165.0814
1600.000000	83.956314	-168.7477
1650.000000	83.502426	-171.4075
1700.000000	83.055420	-173.1933
1750.000000	82.638916	-174.2271
1800.000000	82.263351	-174.7564
1850.000000	81.929184	-174.9177
1900.000000	81.637543	-174.6680
1950.000000	81.395660	-174.1688
2000.000000	81.196762	-173.4441
2060.000000	81.030579	-172.3731
2120.000000	80.953125	-171.1364
2180.000000	80.955940	-170.0909
2240.000000	80.994141	-169.3459
2300.000000	81.046928	-168.7385
2360.000000	81.092964	-168.1003
2430.000000	81.265114	-166.8431
2500.000000	81.465965	-166.4365
2580.000000	81.793556	-165.6967
2650.000000	82.219704	-165.6467
2720.000000	82.725014	-166.6838
2800.000000	83.267868	-169.5637
2900.000000	83.770706	-174.8258
3000.000000	83.880478	178.3135
3070.000000	83.742050	173.8523
3150.000000	83.455811	169.3595
3250.000000	82.984451	164.6876
3350.000000	82.433487	160.8453
3450.000000	81.825287	157.7637
3550.000000	81.359009	155.0016
3650.000000	80.647247	151.8497
3750.000000	79.975716	149.1537
3870.000000	78.973907	145.2998
4000.000000	77.427063	141.4231
4120.000000	75.531898	141.0872
4250.000000	73.411545	145.6562
4370.000000	71.443024	154.5884
4500.000000	70.384506	171.0287
4620.000000	70.124344	-177.1516
4750.000000	70.294441	-163.5611
4870.000000	71.225082	-153.2645
5000.000000	72.342873	-148.2323
5150.000000	72.973381	-146.0570
5300.000000	73.104706	-141.0896
5450.000000	73.814392	-133.4871
5600.000000	74.973648	-129.0447
5800.000000	76.459686	-126.7023
6000.000000	77.894913	-127.5229
6150.000000	78.880203	-129.5240
6300.000000	79.892319	-133.3875
6500.000000	80.846840	-142.5251
6700.000000	81.013443	-154.2598
6900.000000	80.195427	-164.2079
7100.000000	79.056976	-169.6271
7300.000000	77.921326	-172.6912
7500.000000	76.610771	-173.8767
7750.000000	75.066032	-171.0638
8000.000000	74.001404	-163.9897
8250.000000	73.446220	-157.3425
8500.000000	73.323822	-151.9603
8750.000000	72.982140	-146.2128
9000.000000	72.565041	-136.8622
9250.000000	73.924255	-123.5043
9500.000000	76.090294	-118.7114
9750.000000	78.717087	-119.9496
10000.000000	81.277710	-135.0495
10300.000000	81.910835	-161.6888
10600.000000	79.869873	177.1923
10900.000000	77.574341	169.5381
11200.000000	75.558289	167.8918
11500.000000	74.170021	170.5371
11800.000000	73.479202	175.2772
12200.000000	74.682892	-172.6445
12500.000000	77.209129	174.4371
12800.000000	78.016273	155.4306
13200.000000	76.769432	133.1582
13600.000000	75.244339	115.0466
14000.000000	73.699982	98.6412
14500.000000	71.194260	84.4429
15000.000000	69.480537	66.6464
15500.000000	67.535431	51.3159
16000.000000	65.826950	36.6597
16500.000000	65.305618	21.9796
17000.000000	65.814423	0.9187
17500.000000	67.904510	-33.0577
18000.000000	69.069016	-91.4573
18500.000000	68.959976	-160.8511
19000.000000	67.840431	106.5483
19500.000000	61.473518	-13.3851
