* Measurement data measured by REW V5.20
* Source: Headset (USB-C to 3.5mm Headphone Jack Adapter), MICROPHONE (Master Volume), R, volume: 0.260
* Format: 256k Log Swept Sine, 1 sweep at -6.0 dBFS with no timing reference
* Dated: Feb 17, 2021 5:54:29 PM
* REW Settings:
*  C-weighting compensation: Off
*  Target level: 75.0 dB
* Note: ; 
* Measurement: Thieaudio Legacy 9 - R
* Smoothing: 1/48 octave
* Frequency Step: 1/24 octave
* Start Frequency: 20.600 Hz
*
* Freq(Hz)	SPL(dB)	Phase(degrees)
20.600000	96.476715	32.8479
21.200001	96.465065	31.2111
21.799999	96.450829	29.5729
22.400000	96.433945	27.9703
23.000000	96.414337	26.4590
23.600000	96.395432	25.0174
24.299999	96.372154	23.3329
25.000000	96.339943	21.6400
25.799999	96.295944	19.8007
26.500000	96.259781	18.2876
27.200001	96.222458	16.8075
28.000000	96.170052	15.1408
29.000000	96.095070	13.1419
30.000000	96.024704	11.2239
30.700001	95.992554	9.9018
31.500000	95.954208	8.4198
32.500000	95.901344	6.6353
33.500000	95.846619	4.9238
34.500000	95.790527	3.2605
35.500000	95.730019	1.6445
36.500000	95.667702	0.0959
37.500000	95.606903	-1.4076
38.700001	95.532623	-3.1957
40.000000	95.427544	-5.0801
41.200001	95.345291	-6.6985
42.500000	95.257111	-8.5403
43.700001	95.162804	-9.9604
45.000000	95.070282	-11.5953
46.200001	94.972260	-13.0853
47.500000	94.874229	-14.5862
48.700001	94.780289	-15.9294
50.000000	94.676926	-17.3922
51.500000	94.555603	-18.9782
53.000000	94.440781	-20.5549
54.500000	94.313095	-22.1107
56.000000	94.212433	-23.5490
58.000000	94.089333	-25.4368
60.000000	93.957878	-27.2849
61.500000	93.872482	-28.5884
63.000000	93.783554	-29.8424
65.000000	93.657967	-31.5346
67.000000	93.534508	-33.1612
69.000000	93.410637	-34.7039
71.000000	93.282974	-36.2053
73.000000	93.156349	-37.6643
75.000000	93.031891	-39.0793
77.500000	92.874664	-40.7680
80.000000	92.722229	-42.4146
82.500000	92.564896	-43.9860
85.000000	92.410156	-45.5218
87.500000	92.261574	-46.9813
90.000000	92.098106	-48.3997
92.500000	91.956833	-49.7996
95.000000	91.807152	-51.1317
97.500000	91.659508	-52.4402
100.000000	91.516113	-53.6836
103.000000	91.364624	-55.1377
106.000000	91.218834	-56.5384
109.000000	91.076233	-57.9010
112.000000	90.933517	-59.2149
115.000000	90.793282	-60.4905
118.000000	90.655487	-61.7227
122.000000	90.472572	-63.3179
125.000000	90.338760	-64.4502
128.000000	90.208939	-65.5692
132.000000	90.034714	-67.0075
136.000000	89.866989	-68.3955
140.000000	89.701225	-69.7325
145.000000	89.500061	-71.3391
150.000000	89.304321	-72.8751
155.000000	89.116188	-74.3529
160.000000	88.929199	-75.7666
165.000000	88.751106	-77.1221
170.000000	88.574974	-78.4443
175.000000	88.407249	-79.7170
180.000000	88.241547	-80.9561
185.000000	88.081924	-82.0975
190.000000	87.927307	-83.2379
195.000000	87.776215	-84.3431
200.000000	87.629181	-85.4125
206.000000	87.458786	-86.6370
212.000000	87.295715	-87.8297
218.000000	87.137878	-88.9729
224.000000	86.982750	-90.0725
230.000000	86.834106	-91.1441
236.000000	86.690804	-92.1608
243.000000	86.531418	-93.3195
250.000000	86.375778	-94.4355
258.000000	86.206665	-95.6445
265.000000	86.065163	-96.6634
272.000000	85.927109	-97.6415
280.000000	85.775925	-98.7297
290.000000	85.596893	-100.0038
300.000000	85.425735	-101.2089
307.000000	85.313690	-102.0239
315.000000	85.188492	-102.9264
325.000000	85.041542	-103.9945
335.000000	84.898697	-105.0047
345.000000	84.766876	-105.9620
355.000000	84.638245	-106.8651
365.000000	84.517044	-107.7317
375.000000	84.403259	-108.5491
387.000000	84.269653	-109.4640
400.000000	84.137848	-110.3860
412.000000	84.020218	-111.1910
425.000000	83.902008	-111.9917
437.000000	83.796417	-112.6809
450.000000	83.689316	-113.3582
462.000000	83.595459	-113.9423
475.000000	83.501320	-114.5233
487.000000	83.418266	-115.0071
500.000000	83.331085	-115.4921
515.000000	83.237358	-115.9661
530.000000	83.150436	-116.3830
545.000000	83.072685	-116.7318
560.000000	82.999825	-117.0449
580.000000	82.910057	-117.3498
600.000000	82.826958	-117.5424
615.000000	82.776672	-117.6239
630.000000	82.730087	-117.6605
650.000000	82.678589	-117.6302
670.000000	82.636482	-117.5385
690.000000	82.604507	-117.3757
710.000000	82.581451	-117.1497
730.000000	82.566597	-116.8214
750.000000	82.563461	-116.4469
775.000000	82.575684	-115.8860
800.000000	82.607719	-115.2269
825.000000	82.658157	-114.5075
850.000000	82.731827	-113.7423
875.000000	82.828812	-112.9219
900.000000	82.946571	-112.0840
925.000000	83.088829	-111.2553
950.000000	83.254173	-110.4662
975.000000	83.441185	-109.7359
1000.000000	83.647781	-109.0838
1030.000000	83.915634	-108.4397
1060.000000	84.198730	-107.9784
1090.000000	84.490997	-107.6899
1120.000000	84.787109	-107.5849
1150.000000	85.078789	-107.6410
1180.000000	85.360008	-107.8454
1220.000000	85.719643	-108.2990
1250.000000	85.972641	-108.7216
1280.000000	86.212753	-109.1956
1320.000000	86.513489	-109.8707
1360.000000	86.796257	-110.5615
1400.000000	87.066406	-111.2387
1450.000000	87.392784	-112.0666
1500.000000	87.710960	-112.8787
1550.000000	88.029999	-113.6962
1600.000000	88.348877	-114.5384
1650.000000	88.673698	-115.4420
1700.000000	89.000862	-116.4375
1750.000000	89.329529	-117.5473
1800.000000	89.657715	-118.8097
1850.000000	89.981110	-120.2402
1900.000000	90.294144	-121.8500
1950.000000	90.593620	-123.6496
2000.000000	90.871674	-125.6290
2060.000000	91.169350	-128.2399
2120.000000	91.419365	-131.0732
2180.000000	91.614349	-134.0699
2240.000000	91.746368	-137.1664
2300.000000	91.811424	-140.2862
2360.000000	91.807899	-143.3406
2430.000000	91.722588	-146.6987
2500.000000	91.560257	-149.6949
2580.000000	91.306274	-152.5473
2650.000000	91.049240	-154.4866
2720.000000	90.783768	-155.8983
2800.000000	90.493591	-156.9326
2900.000000	90.183434	-157.5337
3000.000000	89.951126	-157.6047
3070.000000	89.837891	-157.4717
3150.000000	89.758095	-157.2254
3250.000000	89.730057	-156.9144
3350.000000	89.776169	-156.7643
3450.000000	89.883095	-156.9454
3550.000000	90.028206	-157.6069
3650.000000	90.185959	-158.8354
3750.000000	90.326675	-160.7056
3870.000000	90.419876	-163.8505
4000.000000	90.326958	-168.2345
4120.000000	89.962387	-172.4954
4250.000000	89.278847	-176.0623
4370.000000	88.531487	-177.7602
4500.000000	87.725624	-178.3830
4620.000000	86.967056	-178.2921
4750.000000	86.093323	-177.2450
4870.000000	85.262123	-175.0247
5000.000000	84.412727	-171.0271
5150.000000	83.609825	-164.4111
5300.000000	83.115562	-156.0455
5450.000000	83.039139	-146.6006
5600.000000	83.463852	-137.0244
5800.000000	84.870071	-126.4178
6000.000000	87.058281	-122.0698
6150.000000	88.757088	-125.4374
6300.000000	89.833733	-134.1896
6500.000000	89.734566	-146.8059
6700.000000	88.696678	-152.8639
6900.000000	87.734825	-153.0830
7100.000000	87.195183	-150.3008
7300.000000	87.097855	-146.6498
7500.000000	87.378754	-143.3331
7750.000000	88.207550	-141.1351
8000.000000	89.327606	-143.5660
8250.000000	90.124176	-151.4383
8500.000000	90.059654	-161.6963
8750.000000	89.216820	-169.5742
9000.000000	88.112808	-173.2653
9250.000000	87.146500	-173.6838
9500.000000	86.473877	-172.3912
9750.000000	86.144440	-170.7603
10000.000000	86.084793	-170.0300
10300.000000	86.160957	-171.0703
10600.000000	86.239037	-173.5033
10900.000000	86.406021	-177.0253
11200.000000	86.603065	177.5509
11500.000000	86.695312	170.7460
11800.000000	86.781937	163.3043
12200.000000	86.950073	151.0027
12500.000000	87.009079	139.8954
12800.000000	86.988228	126.9586
13200.000000	86.686325	105.5639
13600.000000	85.231468	79.2802
14000.000000	82.072350	57.4493
14500.000000	77.604767	44.8920
15000.000000	74.377441	40.5392
15500.000000	72.290909	33.6333
16000.000000	70.635941	23.6518
16500.000000	69.857315	10.0974
17000.000000	70.137161	-13.3204
17500.000000	70.355431	-46.6768
18000.000000	71.962784	-81.2855
18500.000000	75.350891	-137.3345
19000.000000	78.053177	145.3715
19500.000000	78.996552	42.1169
