* Measurement data measured by REW V5.20 Beta 49
* Source: IEC-60711 (USB Sound Device        ), MICROPHONE (Master Volume), R, volume: 0.250
* Format: 512k Log Swept Sine, 1 sweep at 0.0 dBFS with no timing reference
* Dated: Jun 15, 2020 1:12:03 PM
* REW Settings:
*  C-weighting compensation: Off
*  Target level: 20.1 dB
* Note: ; 
* Measurement: TA Legacy 3 - L 11
* Smoothing: 1/48 octave
* Frequency Step: 1/24 octave
* Start Frequency: 20.600 Hz
*
* Freq(Hz)	SPL(dB)	Phase(degrees)
20.600000	85.560524	45.1977
21.200001	85.593269	44.1695
21.799999	85.640457	43.2111
22.400000	85.691254	42.2045
23.000000	85.727005	41.2129
23.600000	85.746658	40.2764
24.299999	85.788345	39.2805
25.000000	85.833847	38.3907
25.799999	85.859604	37.2717
26.500000	85.883850	36.3768
27.200001	85.904663	35.5393
28.000000	85.931206	34.6065
29.000000	85.932343	33.6431
30.000000	85.961578	32.7078
30.700001	85.959244	32.1436
31.500000	85.952774	31.5010
32.500000	85.948601	30.6956
33.500000	85.984909	29.7913
34.500000	85.963303	29.0571
35.500000	85.949707	28.3705
36.500000	85.952431	27.7897
37.500000	85.932274	27.2151
38.700001	85.929214	26.3623
40.000000	85.903793	25.7044
41.200001	85.877548	25.3935
42.500000	85.848724	24.6250
43.700001	85.821846	24.2220
45.000000	85.782448	23.7749
46.200001	85.751701	23.3868
47.500000	85.722687	23.1124
48.700001	85.690971	22.6946
50.000000	85.657700	22.3164
51.500000	85.597931	22.0416
53.000000	85.555679	21.5894
54.500000	85.500381	21.2648
56.000000	85.451729	21.1972
58.000000	85.373993	20.7635
60.000000	85.360840	21.1141
61.500000	85.286118	20.5667
63.000000	85.230942	20.3252
65.000000	85.143890	20.3102
67.000000	85.095779	20.2838
69.000000	85.002098	20.2920
71.000000	84.957626	20.3088
73.000000	84.871605	20.2751
75.000000	84.804222	20.4765
77.500000	84.740509	20.5555
80.000000	84.618248	20.7078
82.500000	84.559357	20.9452
85.000000	84.478989	21.2865
87.500000	84.394691	21.5349
90.000000	84.308472	21.7949
92.500000	84.220840	22.1193
95.000000	84.139809	22.4627
97.500000	84.079422	23.0122
100.000000	84.004822	23.3340
103.000000	83.908890	23.8204
106.000000	83.819916	24.4060
109.000000	83.710571	25.0148
112.000000	83.630775	25.6197
115.000000	83.559029	26.1813
118.000000	83.496742	26.9616
122.000000	83.379829	27.7463
125.000000	83.293785	28.4002
128.000000	83.227425	29.0968
132.000000	83.145462	30.0399
136.000000	83.028732	31.0605
140.000000	82.958496	32.0600
145.000000	82.853889	33.2226
150.000000	82.742470	34.5479
155.000000	82.647415	35.7345
160.000000	82.546112	37.1888
165.000000	82.431427	38.3386
170.000000	82.361893	39.7549
175.000000	82.278641	41.0004
180.000000	82.215179	42.4372
185.000000	82.116058	43.7006
190.000000	82.068230	44.9967
195.000000	82.005585	46.4150
200.000000	81.936760	47.5892
206.000000	81.838821	49.3937
212.000000	81.759789	50.7920
218.000000	81.688385	52.5314
224.000000	81.629837	54.1000
230.000000	81.575226	55.7215
236.000000	81.510300	57.1249
243.000000	81.437881	59.0010
250.000000	81.377609	60.8390
258.000000	81.298767	62.9807
265.000000	81.251160	64.8472
272.000000	81.180664	66.4795
280.000000	81.137032	68.5349
290.000000	81.068443	71.0897
300.000000	81.021324	73.5431
307.000000	80.955498	75.2795
315.000000	80.907997	77.3128
325.000000	80.842140	79.6793
335.000000	80.800278	82.2136
345.000000	80.743805	84.6162
355.000000	80.704391	87.0353
365.000000	80.650047	89.3372
375.000000	80.607750	91.7980
387.000000	80.556786	94.4178
400.000000	80.531151	97.5998
412.000000	80.472214	100.3666
425.000000	80.442078	103.2577
437.000000	80.388626	106.0158
450.000000	80.339211	108.9556
462.000000	80.301704	111.4852
475.000000	80.265396	114.3593
487.000000	80.259590	116.9491
500.000000	80.199852	119.7707
515.000000	80.156342	122.9300
530.000000	80.136139	126.2331
545.000000	80.095016	129.3324
560.000000	80.061226	132.5969
580.000000	80.016747	136.7408
600.000000	79.954155	141.1362
615.000000	79.949501	144.3929
630.000000	79.918961	147.6778
650.000000	79.922234	151.8997
670.000000	79.925461	156.1002
690.000000	79.929741	160.3149
710.000000	79.986534	164.3692
730.000000	80.024048	168.1678
750.000000	80.043221	172.0250
775.000000	80.088455	176.8412
800.000000	80.101601	-178.4097
825.000000	80.060989	-173.6107
850.000000	80.034470	-168.2626
875.000000	80.080666	-162.5771
900.000000	80.348648	-156.8719
925.000000	80.567162	-152.6101
950.000000	80.689262	-148.3138
975.000000	80.839592	-143.6440
1000.000000	81.092102	-139.2451
1030.000000	81.261383	-133.6853
1060.000000	81.536011	-128.4225
1090.000000	81.854721	-123.2942
1120.000000	82.177864	-118.5214
1150.000000	82.534416	-114.1137
1180.000000	82.878036	-109.9924
1220.000000	83.358429	-105.0307
1250.000000	83.703476	-101.5239
1280.000000	84.025162	-98.2823
1320.000000	84.444641	-94.1538
1360.000000	84.830391	-90.2739
1400.000000	85.220184	-86.5421
1450.000000	85.689835	-82.1049
1500.000000	86.174988	-78.0168
1550.000000	86.649170	-74.1844
1600.000000	87.151268	-70.8545
1650.000000	87.650215	-68.0418
1700.000000	88.120186	-65.9279
1750.000000	88.538788	-64.5286
1800.000000	88.881577	-63.7315
1850.000000	89.116074	-63.3280
1900.000000	89.214561	-63.0136
1950.000000	89.204575	-62.5926
2000.000000	89.093002	-61.9684
2060.000000	88.916901	-60.3919
2120.000000	88.692841	-58.3013
2180.000000	88.467987	-55.7364
2240.000000	88.274399	-52.7271
2300.000000	88.115860	-49.5827
2360.000000	87.991913	-46.3042
2430.000000	87.887177	-42.5856
2500.000000	87.812836	-38.8658
2580.000000	87.752487	-34.8042
2650.000000	87.717812	-31.5407
2720.000000	87.695526	-28.3239
2800.000000	87.654930	-24.9752
2900.000000	87.624557	-20.9984
3000.000000	87.561081	-17.3521
3070.000000	87.520050	-14.9097
3150.000000	87.449989	-12.2706
3250.000000	87.351379	-9.0161
3350.000000	87.234016	-5.8062
3450.000000	87.126556	-2.6455
3550.000000	87.022209	0.7339
3650.000000	86.964401	4.0682
3750.000000	87.031174	7.5651
3870.000000	87.343224	10.6447
4000.000000	87.872482	10.5739
4120.000000	87.913086	5.8897
4250.000000	86.937675	0.3422
4370.000000	85.377083	0.0906
4500.000000	83.780922	6.4216
4620.000000	82.963852	15.9746
4750.000000	82.978500	25.7479
4870.000000	83.455170	30.9777
5000.000000	83.846443	32.5408
5150.000000	83.793114	32.4633
5300.000000	83.431648	33.3994
5450.000000	83.039001	35.0659
5600.000000	82.597054	36.8910
5800.000000	82.007256	40.7699
6000.000000	81.610367	46.0599
6150.000000	81.502136	49.9934
6300.000000	81.559998	53.9514
6500.000000	81.901199	57.8364
6700.000000	82.402885	60.7370
6900.000000	83.187332	62.5034
7100.000000	84.178642	61.8195
7300.000000	85.657074	58.3990
7500.000000	87.205475	48.2706
7750.000000	88.176346	24.9572
8000.000000	86.871262	0.5225
8250.000000	84.540604	-14.1318
8500.000000	82.557991	-22.6479
8750.000000	80.929535	-30.3772
9000.000000	79.275650	-38.9047
9250.000000	77.314789	-46.0576
9500.000000	75.268921	-49.4497
9750.000000	73.544136	-50.2934
10000.000000	72.246552	-49.0238
10300.000000	71.354065	-48.6534
10600.000000	71.004280	-49.5683
10900.000000	70.839867	-54.3452
11200.000000	70.534119	-63.6272
11500.000000	68.913818	-72.5902
11800.000000	67.783463	-65.4674
12200.000000	70.019463	-63.0218
12500.000000	72.090103	-73.9695
12800.000000	73.708588	-91.7124
13200.000000	74.859955	-121.7704
13600.000000	75.003242	-153.3683
14000.000000	74.561089	176.5901
14500.000000	73.846542	142.4559
15000.000000	73.769150	109.7668
15500.000000	74.975555	71.3925
16000.000000	75.187332	11.2980
16500.000000	71.568672	-41.3152
17000.000000	67.966919	-77.5812
17500.000000	65.313004	-107.5345
18000.000000	62.958099	-133.3420
18500.000000	62.710411	-137.6358
19000.000000	65.371246	176.6775
19500.000000	65.575821	130.2578
