* Measurement data measured by REW V5.20
* Source: Headset (USB-C to 3.5mm Headphone Jack Adapter), MICROPHONE (Master Volume), R, volume: 0.260
* Format: 256k Log Swept Sine, 1 sweep at -6.0 dBFS with no timing reference
* Dated: Apr 9, 2021 10:32:15 AM
* REW Settings:
*  C-weighting compensation: Off
*  Target level: 75.0 dB
* Note: ; 
* Measurement: Audio Lokahi - R
* Smoothing: 1/48 octave
* Frequency Step: 1/24 octave
* Start Frequency: 20.600 Hz
*
* Freq(Hz)	SPL(dB)	Phase(degrees)
20.600000	92.950020	-115.3655
21.200001	93.014091	-117.0141
21.799999	93.050674	-118.5635
22.400000	93.082977	-120.0152
23.000000	93.120247	-121.4547
23.600000	93.164627	-122.9278
24.299999	93.223061	-124.7190
25.000000	93.255630	-126.4975
25.799999	93.243431	-128.0231
26.500000	93.265915	-128.9389
27.200001	93.333427	-130.2474
28.000000	93.345306	-132.3412
29.000000	93.288490	-134.3076
30.000000	93.339653	-135.8238
30.700001	93.373291	-137.1543
31.500000	93.361443	-138.5358
32.500000	93.375214	-139.9952
33.500000	93.413040	-141.5271
34.500000	93.427200	-142.9427
35.500000	93.444565	-144.3089
36.500000	93.445442	-145.7980
37.500000	93.423615	-147.0697
38.700001	93.423035	-148.4471
40.000000	93.416412	-149.9357
41.200001	93.428207	-151.2832
42.500000	93.406776	-152.8106
43.700001	93.378571	-154.0072
45.000000	93.367531	-155.2917
46.200001	93.347473	-156.4580
47.500000	93.321808	-157.6428
48.700001	93.288559	-158.8065
50.000000	93.245277	-159.8032
51.500000	93.236908	-160.9864
53.000000	93.197540	-162.2319
54.500000	93.150505	-163.7451
56.000000	93.086235	-164.4304
58.000000	93.062286	-165.6919
60.000000	93.126968	-167.2904
61.500000	93.102776	-168.3364
63.000000	93.113655	-169.3879
65.000000	93.078232	-170.8133
67.000000	93.062141	-171.8621
69.000000	93.037300	-172.9015
71.000000	92.966454	-174.2156
73.000000	92.954002	-175.0206
75.000000	92.895164	-176.1142
77.500000	92.802246	-177.6004
80.000000	92.764809	-178.9163
82.500000	92.730362	-179.9268
85.000000	92.642380	179.0127
87.500000	92.588432	177.6224
90.000000	92.551682	176.8599
92.500000	92.427620	175.5406
95.000000	92.389191	174.7838
97.500000	92.288643	173.7429
100.000000	92.216637	172.7621
103.000000	92.137741	171.6753
106.000000	92.076431	170.2771
109.000000	91.988052	169.4688
112.000000	91.923996	168.5746
115.000000	91.767754	167.6238
118.000000	91.714478	166.7335
122.000000	91.588326	165.2266
125.000000	91.485031	164.6670
128.000000	91.358704	163.8364
132.000000	91.235199	162.9819
136.000000	91.082176	162.0363
140.000000	90.930626	161.2934
145.000000	90.749504	160.2117
150.000000	90.524818	159.1554
155.000000	90.319046	158.4818
160.000000	90.112686	157.9457
165.000000	89.915260	157.1705
170.000000	89.697067	156.6920
175.000000	89.504890	156.3629
180.000000	89.288193	155.9858
185.000000	89.069717	155.7678
190.000000	88.890625	155.6968
195.000000	88.678513	155.5273
200.000000	88.469589	155.8381
206.000000	88.235611	155.7972
212.000000	88.014305	155.8779
218.000000	87.783226	156.1675
224.000000	87.578438	156.6623
230.000000	87.400436	157.2221
236.000000	87.198891	157.5409
243.000000	86.994102	158.2523
250.000000	86.785431	159.1223
258.000000	86.609451	160.1015
265.000000	86.424919	160.9934
272.000000	86.278198	161.8885
280.000000	86.132072	162.9987
290.000000	85.963829	164.3185
300.000000	85.833069	165.6849
307.000000	85.748779	166.6425
315.000000	85.666878	167.6843
325.000000	85.578613	169.0034
335.000000	85.509247	170.2507
345.000000	85.456406	171.4625
355.000000	85.412834	172.5907
365.000000	85.381561	173.6944
375.000000	85.356880	174.7422
387.000000	85.337952	175.9131
400.000000	85.328499	177.1167
412.000000	85.323769	178.1504
425.000000	85.326569	179.1913
437.000000	85.329338	-179.8910
450.000000	85.336838	-178.9576
462.000000	85.347076	-178.1563
475.000000	85.357269	-177.3119
487.000000	85.367355	-176.5766
500.000000	85.378860	-175.8242
515.000000	85.389862	-174.9614
530.000000	85.403290	-174.1521
545.000000	85.414207	-173.3759
560.000000	85.427200	-172.6001
580.000000	85.440643	-171.6128
600.000000	85.456139	-170.6336
615.000000	85.465324	-169.9120
630.000000	85.474045	-169.2004
650.000000	85.486961	-168.2470
670.000000	85.502998	-167.2892
690.000000	85.517532	-166.3270
710.000000	85.534958	-165.3606
730.000000	85.555267	-164.3861
750.000000	85.579323	-163.4012
775.000000	85.613953	-162.1549
800.000000	85.659698	-160.9003
825.000000	85.713837	-159.6441
850.000000	85.779732	-158.3910
875.000000	85.855164	-157.1552
900.000000	85.942581	-155.9559
925.000000	86.042137	-154.8045
950.000000	86.149010	-153.7172
975.000000	86.264450	-152.7060
1000.000000	86.385406	-151.7801
1030.000000	86.531761	-150.7923
1060.000000	86.674393	-149.9240
1090.000000	86.807884	-149.1622
1120.000000	86.926933	-148.4676
1150.000000	87.029076	-147.8086
1180.000000	87.114372	-147.0976
1220.000000	87.205971	-146.0065
1250.000000	87.269257	-145.0068
1280.000000	87.342636	-143.8283
1320.000000	87.475044	-141.9981
1360.000000	87.675468	-140.0394
1400.000000	87.948074	-138.1904
1450.000000	88.366638	-136.3466
1500.000000	88.817024	-135.1431
1550.000000	89.256432	-134.4939
1600.000000	89.666061	-134.1986
1650.000000	90.048950	-134.1097
1700.000000	90.415359	-134.1591
1750.000000	90.770554	-134.3299
1800.000000	91.118904	-134.6396
1850.000000	91.464622	-135.0950
1900.000000	91.806625	-135.7165
1950.000000	92.144394	-136.5368
2000.000000	92.473671	-137.5857
2060.000000	92.850632	-139.1592
2120.000000	93.196175	-141.1061
2180.000000	93.496094	-143.4111
2240.000000	93.733582	-146.0423
2300.000000	93.896408	-148.9143
2360.000000	93.974472	-151.9185
2430.000000	93.951157	-155.4099
2500.000000	93.813141	-158.6833
2580.000000	93.538109	-161.9204
2650.000000	93.221970	-164.1792
2720.000000	92.861717	-165.8520
2800.000000	92.424828	-167.0617
2900.000000	91.872955	-167.5867
3000.000000	91.348526	-167.1514
3070.000000	91.011307	-166.3440
3150.000000	90.662300	-164.9758
3250.000000	90.288643	-162.6206
3350.000000	90.015022	-159.4603
3450.000000	89.938675	-155.5925
3550.000000	90.141266	-152.1345
3650.000000	90.453369	-150.3423
3750.000000	90.655434	-149.5185
3870.000000	90.797935	-148.2689
4000.000000	91.007370	-146.3909
4120.000000	91.321243	-144.6249
4250.000000	91.801941	-143.1670
4370.000000	92.367737	-142.6360
4500.000000	93.081589	-143.4214
4620.000000	93.772873	-145.8559
4750.000000	94.424500	-150.7381
4870.000000	94.761879	-157.1611
5000.000000	94.674606	-165.0225
5150.000000	93.999283	-172.8134
5300.000000	93.007950	-177.4572
5450.000000	92.077545	-179.1272
5600.000000	91.454033	-179.6240
5800.000000	90.899887	176.7276
6000.000000	89.431412	170.6466
6150.000000	87.805237	170.8918
6300.000000	86.400894	175.3018
6500.000000	85.132828	-176.1168
6700.000000	84.430405	-166.7401
6900.000000	84.166138	-157.3642
7100.000000	84.313416	-148.1713
7300.000000	84.935280	-139.7959
7500.000000	86.047386	-133.6744
7750.000000	87.800766	-131.9604
8000.000000	89.344376	-136.4748
8250.000000	90.383423	-146.7318
8500.000000	90.063919	-160.0935
8750.000000	88.548035	-166.1439
9000.000000	87.666092	-163.9099
9250.000000	87.544083	-165.0284
9500.000000	86.958015	-167.3338
9750.000000	86.275696	-166.9927
10000.000000	85.909981	-164.2367
10300.000000	86.175194	-161.2004
10600.000000	87.108040	-160.8883
10900.000000	88.612640	-167.2788
11200.000000	89.655289	177.4445
11500.000000	89.761459	156.2711
11800.000000	88.001007	133.2086
12200.000000	83.208168	122.4231
12500.000000	81.284561	132.7316
12800.000000	81.497055	138.3957
13200.000000	82.555511	137.2206
13600.000000	84.164574	128.1877
14000.000000	85.782150	106.3037
14500.000000	84.724823	65.7823
15000.000000	81.056335	40.1781
15500.000000	78.607079	25.6332
16000.000000	77.500153	4.8217
16500.000000	77.144768	-19.5468
17000.000000	77.856125	-53.6148
17500.000000	79.602219	-96.2837
18000.000000	81.344376	-156.5011
18500.000000	81.074188	138.1111
19000.000000	82.655838	63.2172
19500.000000	81.295906	-44.0373
