* Measurement data measured by REW V5.20 Beta 47
* Source: IEC-711 (3- USB Sound Device        ), MICROPHONE (Master Volume), R, volume: 0.530
* Format: 512k Log Swept Sine, 1 sweep at 0.0 dBFS with no timing reference
* Dated: Apr 28, 2020 8:40:49 PM
* REW Settings:
*  C-weighting compensation: Off
*  Target level: 75.0 dB
* Note: ; 
* Measurement: Luna R
* Smoothing: 1/48 octave
* Frequency Step: 1/24 octave
* Start Frequency: 20.600 Hz
*
* Freq(Hz)	SPL(dB)	Phase(degrees)
20.600000	84.721382	-91.6656
21.200001	84.790115	-92.8678
21.799999	84.852264	-94.2622
22.400000	84.899948	-95.4716
23.000000	85.001877	-96.1418
23.600000	85.087799	-96.9894
24.299999	85.210495	-99.1313
25.000000	85.304810	-100.8713
25.799999	85.348068	-102.1816
26.500000	85.402237	-102.7336
27.200001	85.452263	-103.9876
28.000000	85.576103	-105.5114
29.000000	85.549843	-106.9286
30.000000	85.641800	-107.9480
30.700001	85.728294	-108.8408
31.500000	85.827278	-110.3690
32.500000	85.854454	-111.2237
33.500000	85.899353	-112.2561
34.500000	85.958694	-113.3144
35.500000	85.978676	-114.1878
36.500000	85.997772	-115.0115
37.500000	86.055840	-115.9460
38.700001	86.065247	-116.7437
40.000000	86.086472	-117.9103
41.200001	86.123764	-118.6364
42.500000	86.144051	-119.3983
43.700001	86.175888	-120.4096
45.000000	86.171379	-121.2259
46.200001	86.178398	-121.9852
47.500000	86.160492	-122.5206
48.700001	86.172783	-123.3664
50.000000	86.161659	-123.5953
51.500000	86.168335	-124.1667
53.000000	86.168823	-124.6538
54.500000	86.152802	-125.1966
56.000000	86.235306	-125.5075
58.000000	86.234268	-126.6634
60.000000	86.188263	-125.9648
61.500000	86.234734	-127.4775
63.000000	86.243919	-128.0321
65.000000	86.269081	-128.3124
67.000000	86.258286	-128.7256
69.000000	86.272194	-129.1806
71.000000	86.277840	-129.4054
73.000000	86.264145	-129.7556
75.000000	86.267181	-130.0390
77.500000	86.235252	-130.2403
80.000000	86.240395	-130.5291
82.500000	86.227798	-130.5825
85.000000	86.219429	-130.8549
87.500000	86.201591	-130.9249
90.000000	86.298309	-130.4562
92.500000	86.175247	-130.9706
95.000000	86.181305	-131.1223
97.500000	86.080368	-130.9055
100.000000	86.069450	-130.9714
103.000000	86.074326	-130.8759
106.000000	86.063293	-130.8026
109.000000	86.054634	-130.6396
112.000000	86.042534	-130.4186
115.000000	86.030464	-130.2374
118.000000	86.010094	-130.1866
122.000000	85.993599	-129.7851
125.000000	85.973946	-129.5657
128.000000	85.951279	-129.3217
132.000000	85.917351	-128.8780
136.000000	85.870972	-128.5543
140.000000	85.830856	-128.0421
145.000000	85.777031	-127.5853
150.000000	85.695282	-127.0320
155.000000	85.571259	-126.6395
160.000000	85.357452	-125.2897
165.000000	85.291237	-122.6958
170.000000	85.386009	-120.8928
175.000000	85.612022	-120.6455
180.000000	85.667213	-120.0542
185.000000	85.647430	-119.8626
190.000000	85.613426	-119.3344
195.000000	85.563118	-118.6889
200.000000	85.520340	-118.0097
206.000000	85.469772	-117.0974
212.000000	85.420738	-116.0845
218.000000	85.371872	-115.2045
224.000000	85.337364	-114.0634
230.000000	85.289818	-113.1232
236.000000	85.247375	-112.0376
243.000000	85.197334	-110.9239
250.000000	85.136734	-109.6538
258.000000	85.080620	-108.2928
265.000000	85.017342	-107.0744
272.000000	84.963913	-105.7300
280.000000	84.890518	-104.3436
290.000000	84.816147	-102.4548
300.000000	84.737297	-100.5217
307.000000	84.677223	-99.2713
315.000000	84.624992	-97.8613
325.000000	84.560478	-95.9514
335.000000	84.466370	-94.0924
345.000000	84.397385	-92.2237
355.000000	84.327492	-90.3395
365.000000	84.245186	-88.4246
375.000000	84.170273	-86.4946
387.000000	84.087967	-84.2720
400.000000	83.989433	-81.8418
412.000000	83.900879	-79.5548
425.000000	83.816406	-77.0786
437.000000	83.731674	-74.7991
450.000000	83.637383	-72.2761
462.000000	83.564514	-70.0390
475.000000	83.472351	-67.5675
487.000000	83.394760	-65.2616
500.000000	83.307755	-62.8373
515.000000	83.211876	-60.0233
530.000000	83.120506	-57.1720
545.000000	83.035011	-54.2903
560.000000	82.932755	-51.5433
580.000000	82.813042	-47.7747
600.000000	82.700424	-43.9297
615.000000	82.609261	-41.0870
630.000000	82.523636	-38.2194
650.000000	82.423851	-34.4668
670.000000	82.321190	-30.6900
690.000000	82.206505	-26.9162
710.000000	82.120491	-23.0852
730.000000	82.017319	-19.3491
750.000000	81.927933	-15.4502
775.000000	81.814606	-10.6791
800.000000	81.715019	-5.8666
825.000000	81.627983	-0.9754
850.000000	81.567368	3.8749
875.000000	81.496223	8.8435
900.000000	81.456017	13.8059
925.000000	81.427544	18.6836
950.000000	81.420074	23.7222
975.000000	81.445877	28.6314
1000.000000	81.456535	33.4343
1030.000000	81.578316	39.3384
1060.000000	81.718979	45.1171
1090.000000	81.894379	50.5563
1120.000000	82.083839	55.8047
1150.000000	82.305168	60.7306
1180.000000	82.542900	65.3755
1220.000000	82.855591	71.0611
1250.000000	83.079216	75.0987
1280.000000	83.282127	78.8895
1320.000000	83.531410	83.6813
1360.000000	83.768723	88.2829
1400.000000	83.968384	92.7933
1450.000000	84.193321	98.2834
1500.000000	84.410286	103.6750
1550.000000	84.610565	109.0268
1600.000000	84.821915	114.3449
1650.000000	85.018265	119.5405
1700.000000	85.229469	124.7223
1750.000000	85.444298	129.7642
1800.000000	85.670525	134.6945
1850.000000	85.908325	139.4808
1900.000000	86.171326	144.1540
1950.000000	86.448303	148.6844
2000.000000	86.746681	152.8748
2060.000000	87.100311	157.8653
2120.000000	87.485321	162.4266
2180.000000	87.879868	166.7157
2240.000000	88.286865	170.6440
2300.000000	88.694267	174.2194
2360.000000	89.108231	177.4195
2430.000000	89.579170	-179.3358
2500.000000	90.027412	-176.5713
2580.000000	90.500717	-173.8828
2650.000000	90.904015	-171.8046
2720.000000	91.328064	-170.2656
2800.000000	91.743073	-169.5475
2900.000000	92.058159	-169.2651
3000.000000	92.218460	-169.0687
3070.000000	92.258682	-168.7897
3150.000000	92.239731	-168.3259
3250.000000	92.172318	-167.3997
3350.000000	92.091278	-166.0980
3450.000000	92.026154	-164.5390
3550.000000	92.003777	-162.8687
3650.000000	92.030571	-161.2775
3750.000000	92.095779	-159.7683
3870.000000	92.294586	-158.1252
4000.000000	92.703140	-157.5426
4120.000000	93.169731	-159.0063
4250.000000	93.635780	-163.2628
4370.000000	93.834747	-169.9018
4500.000000	93.544128	-179.1089
4620.000000	92.702682	172.4042
4750.000000	91.299980	165.2658
4870.000000	89.773819	161.2370
5000.000000	88.052330	159.3880
5150.000000	86.121841	160.3065
5300.000000	84.481827	162.9367
5450.000000	82.987595	166.3064
5600.000000	81.637314	170.3678
5800.000000	80.041344	176.6177
6000.000000	78.726440	-176.6954
6150.000000	77.866837	-171.6059
6300.000000	77.081886	-166.2947
6500.000000	76.244965	-158.9189
6700.000000	75.674767	-151.3922
6900.000000	75.391960	-143.6645
7100.000000	75.438744	-136.4221
7300.000000	76.011871	-129.2490
7500.000000	77.232689	-124.1785
7750.000000	79.988655	-124.5163
8000.000000	83.409088	-146.7650
8250.000000	82.241470	171.2086
8500.000000	77.828484	153.6717
8750.000000	74.363174	151.0618
9000.000000	71.912453	152.5556
9250.000000	70.134514	155.4535
9500.000000	68.764580	157.7634
9750.000000	67.823547	160.1983
10000.000000	67.059372	161.9335
10300.000000	66.566650	163.3396
10600.000000	66.256126	164.0892
10900.000000	66.192810	164.3290
11200.000000	66.419174	163.6746
11500.000000	66.969948	161.8214
11800.000000	68.037201	159.1443
12200.000000	70.226906	150.1554
12500.000000	72.240387	136.8623
12800.000000	74.076729	115.8862
13200.000000	75.137177	81.1392
13600.000000	74.967659	45.7010
14000.000000	73.852364	10.6739
14500.000000	71.309708	-25.6433
15000.000000	68.936005	-51.7256
15500.000000	67.730957	-71.2789
16000.000000	68.618126	-90.2827
16500.000000	71.908630	-124.9283
17000.000000	73.078445	169.1428
17500.000000	70.060127	113.9933
18000.000000	68.087471	70.3398
18500.000000	67.089096	10.4735
19000.000000	62.045464	-63.0919
19500.000000	54.125408	-100.5642
