* Measurement data measured by REW V5.20
* Source: Headset (USB-C to 3.5mm Headphone Jack Adapter), MICROPHONE (Master Volume), R, volume: 0.260
* Format: 256k Log Swept Sine, 1 sweep at -6.0 dBFS with no timing reference
* Dated: Sep 24, 2021 5:33:08 PM
* REW Settings:
*  C-weighting compensation: Off
*  Target level: 75.0 dB
* Note: ; 
* Measurement: LZ A4 Pro Blk Blk L
* Smoothing: 1/48 octave
* Frequency Step: 1/24 octave
* Start Frequency: 20.600 Hz
*
* Freq(Hz)	SPL(dB)	Phase(degrees)
20.600000	86.884583	-101.1233
21.200001	87.069611	-102.9073
21.799999	87.268951	-104.8908
22.400000	87.431908	-106.9660
23.000000	87.527634	-108.8753
23.600000	87.573685	-110.5267
24.299999	87.614441	-112.3031
25.000000	87.678314	-114.1363
25.799999	87.769615	-116.2571
26.500000	87.830353	-117.9055
27.200001	87.864769	-119.3566
28.000000	87.889107	-121.1443
29.000000	87.920013	-123.5707
30.000000	88.026245	-125.4115
30.700001	88.096603	-126.6776
31.500000	88.030548	-128.1871
32.500000	87.906029	-129.4885
33.500000	88.047058	-131.4479
34.500000	88.169563	-134.0540
35.500000	88.173294	-135.6499
36.500000	88.177338	-137.0598
37.500000	88.178101	-138.6538
38.700001	88.175682	-140.1886
40.000000	88.192398	-141.7822
41.200001	88.178749	-143.4499
42.500000	88.183907	-144.8061
43.700001	88.207779	-146.3162
45.000000	88.216774	-148.0044
46.200001	88.181992	-149.4620
47.500000	88.117493	-150.6619
48.700001	88.161613	-151.8575
50.000000	88.128365	-153.2169
51.500000	88.068024	-154.5424
53.000000	88.062096	-155.7248
54.500000	88.055336	-156.8733
56.000000	87.996323	-158.1704
58.000000	87.966423	-159.6030
60.000000	87.908508	-160.9551
61.500000	87.906647	-162.0286
63.000000	87.866211	-163.0986
65.000000	87.796478	-164.2025
67.000000	87.765869	-165.5516
69.000000	87.713814	-166.6728
71.000000	87.658142	-167.6225
73.000000	87.589752	-168.5675
75.000000	87.541077	-169.4359
77.500000	87.485069	-170.6061
80.000000	87.391762	-171.6867
82.500000	87.339630	-172.6478
85.000000	87.258240	-173.4792
87.500000	87.171692	-174.4350
90.000000	87.125923	-175.2180
92.500000	87.037964	-176.0490
95.000000	86.952591	-176.7384
97.500000	86.891747	-177.2075
100.000000	86.841583	-178.1537
103.000000	86.737495	-178.7761
106.000000	86.651459	-179.4835
109.000000	86.572205	179.7569
112.000000	86.492104	179.2728
115.000000	86.416840	178.7641
118.000000	86.334854	178.2615
122.000000	86.239944	177.6565
125.000000	86.162567	177.2195
128.000000	86.094444	176.7751
132.000000	86.000427	176.2549
136.000000	85.897858	175.9254
140.000000	85.803696	175.5649
145.000000	85.685066	175.0474
150.000000	85.562492	174.6366
155.000000	85.470177	174.4450
160.000000	85.352036	174.2065
165.000000	85.244865	173.9904
170.000000	85.147278	173.8691
175.000000	85.055710	173.6927
180.000000	84.942917	173.7110
185.000000	84.853981	173.5048
190.000000	84.762779	173.4640
195.000000	84.654800	173.4514
200.000000	84.582916	173.4936
206.000000	84.488541	173.6323
212.000000	84.393875	173.6526
218.000000	84.283562	173.8072
224.000000	84.197510	173.9979
230.000000	84.119461	174.0657
236.000000	84.032654	174.3099
243.000000	83.929497	174.4421
250.000000	83.847313	174.7643
258.000000	83.741241	175.1045
265.000000	83.655434	175.4272
272.000000	83.576462	175.7457
280.000000	83.494743	176.1730
290.000000	83.389961	176.6251
300.000000	83.289268	177.2050
307.000000	83.233055	177.5579
315.000000	83.158669	178.0325
325.000000	83.078491	178.5915
335.000000	83.005806	179.2519
345.000000	82.930664	179.8542
355.000000	82.860664	-179.5570
365.000000	82.796539	-178.9200
375.000000	82.737808	-178.2446
387.000000	82.673378	-177.4665
400.000000	82.608009	-176.6545
412.000000	82.550468	-175.8405
425.000000	82.491669	-174.9947
437.000000	82.449860	-174.1536
450.000000	82.402039	-173.3182
462.000000	82.365639	-172.4975
475.000000	82.327957	-171.5801
487.000000	82.291794	-170.7523
500.000000	82.266777	-169.8667
515.000000	82.233910	-168.8338
530.000000	82.207039	-167.7907
545.000000	82.193802	-166.7557
560.000000	82.177177	-165.6971
580.000000	82.158295	-164.3160
600.000000	82.150253	-162.9357
615.000000	82.155075	-161.8358
630.000000	82.154892	-160.7819
650.000000	82.165733	-159.3295
670.000000	82.183968	-157.8906
690.000000	82.211159	-156.4309
710.000000	82.241447	-154.9731
730.000000	82.285828	-153.5189
750.000000	82.329613	-151.9852
775.000000	82.396439	-150.0269
800.000000	82.492233	-147.8828
825.000000	82.656601	-145.8627
850.000000	82.838799	-144.1694
875.000000	83.006638	-142.5933
900.000000	83.168655	-141.0099
925.000000	83.351921	-139.4411
950.000000	83.553741	-137.9383
975.000000	83.767044	-136.4871
1000.000000	83.995132	-135.1266
1030.000000	84.278976	-133.6660
1060.000000	84.572914	-132.3748
1090.000000	84.872375	-131.2294
1120.000000	85.177872	-130.2469
1150.000000	85.478462	-129.3905
1180.000000	85.776573	-128.6654
1220.000000	86.166473	-127.8652
1250.000000	86.453178	-127.3557
1280.000000	86.735909	-126.9074
1320.000000	87.109665	-126.4043
1360.000000	87.481689	-125.9915
1400.000000	87.854027	-125.6532
1450.000000	88.329514	-125.3762
1500.000000	88.816238	-125.2621
1550.000000	89.318581	-125.3449
1600.000000	89.842766	-125.7381
1650.000000	90.385094	-126.4541
1700.000000	90.942711	-127.6404
1750.000000	91.503204	-129.4330
1800.000000	92.039085	-131.9420
1850.000000	92.508415	-135.2412
1900.000000	92.858307	-139.1799
1950.000000	93.054283	-143.4560
2000.000000	93.086296	-147.6582
2060.000000	92.947205	-152.1209
2120.000000	92.682205	-155.6631
2180.000000	92.352898	-158.2467
2240.000000	92.005531	-159.9456
2300.000000	91.672287	-160.8886
2360.000000	91.374924	-161.2081
2430.000000	91.094063	-160.9765
2500.000000	90.898010	-160.2843
2580.000000	90.785553	-159.2331
2650.000000	90.778229	-158.3192
2720.000000	90.835464	-157.5942
2800.000000	90.949036	-157.0461
2900.000000	91.130013	-156.7805
3000.000000	91.342537	-156.8295
3070.000000	91.513573	-156.9874
3150.000000	91.744049	-157.3348
3250.000000	92.096581	-158.1454
3350.000000	92.519501	-159.6559
3450.000000	92.985756	-162.2317
3550.000000	93.437241	-166.1993
3650.000000	93.774940	-171.7409
3750.000000	93.871719	-178.6366
3870.000000	93.534607	172.4570
4000.000000	92.621864	164.1716
4120.000000	91.485115	159.2166
4250.000000	90.233131	156.9673
4370.000000	89.276398	156.9666
4500.000000	88.597260	157.4443
4620.000000	88.186813	156.0893
4750.000000	87.474701	152.0541
4870.000000	86.286278	148.8974
5000.000000	84.732079	148.7770
5150.000000	83.060661	152.2991
5300.000000	81.683273	157.9081
5450.000000	80.561897	164.4711
5600.000000	79.699287	172.2740
5800.000000	78.998627	-178.7358
6000.000000	78.404747	-169.4522
6150.000000	78.130051	-162.3587
6300.000000	77.991219	-155.3127
6500.000000	78.010849	-146.0905
6700.000000	78.269379	-137.1594
6900.000000	78.769447	-128.7215
7100.000000	79.553894	-120.9022
7300.000000	80.656601	-114.2817
7500.000000	82.083855	-109.6031
7750.000000	84.282043	-108.3942
8000.000000	86.426720	-115.2610
8250.000000	87.519806	-128.5204
8500.000000	87.334412	-140.4980
8750.000000	86.638084	-146.7008
9000.000000	86.178627	-148.2447
9250.000000	86.276039	-147.9496
9500.000000	86.991112	-148.4345
9750.000000	88.255241	-152.1295
10000.000000	89.822464	-161.6014
10300.000000	91.363670	176.9262
10600.000000	91.354446	146.0660
10900.000000	89.200768	114.5663
11200.000000	85.316223	88.9072
11500.000000	79.919823	70.9779
11800.000000	71.838478	76.1320
12200.000000	70.987289	142.1991
12500.000000	73.622131	141.7988
12800.000000	75.033585	135.8451
13200.000000	76.626892	119.7061
13600.000000	76.746391	94.8142
14000.000000	75.428528	74.0665
14500.000000	74.085251	55.8889
15000.000000	73.787598	37.6063
15500.000000	74.931519	6.3541
16000.000000	73.453674	-49.1074
16500.000000	68.539406	-95.3385
17000.000000	63.182251	-130.7651
17500.000000	59.643417	-166.4980
18000.000000	59.368881	146.5356
18500.000000	62.008961	73.1217
19000.000000	64.213966	-26.2402
19500.000000	62.632610	-155.3407
