* Measurement data measured by REW V5.20
* Source: Headset (USB-C to 3.5mm Headphone Jack Adapter), MICROPHONE (Master Volume), R, volume: 0.260
* Format: 256k Log Swept Sine, 1 sweep at -6.0 dBFS with no timing reference
* Dated: Sep 24, 2021 5:50:30 PM
* REW Settings:
*  C-weighting compensation: Off
*  Target level: 75.0 dB
* Note: ; 
* Measurement: LZ A4 Pro Red Sil R
* Smoothing: 1/48 octave
* Frequency Step: 1/24 octave
* Start Frequency: 20.600 Hz
*
* Freq(Hz)	SPL(dB)	Phase(degrees)
20.600000	91.023071	-121.8881
21.200001	91.101906	-123.6982
21.799999	91.160065	-125.4427
22.400000	91.213219	-127.1472
23.000000	91.262680	-128.8392
23.600000	91.300079	-130.5084
24.299999	91.324661	-132.3230
25.000000	91.344170	-133.9720
25.799999	91.362518	-135.8771
26.500000	91.349976	-137.6072
27.200001	91.316864	-139.2161
28.000000	91.295883	-140.8544
29.000000	91.299728	-142.8452
30.000000	91.282967	-144.8034
30.700001	91.256554	-146.0654
31.500000	91.233818	-147.4528
32.500000	91.205658	-149.2502
33.500000	91.162483	-150.8924
34.500000	91.135330	-152.4733
35.500000	91.088142	-154.0787
36.500000	91.045456	-155.4661
37.500000	91.007362	-156.8615
38.700001	90.953529	-158.3302
40.000000	90.907097	-160.0674
41.200001	90.848038	-161.5525
42.500000	90.772385	-163.0028
43.700001	90.715576	-164.1014
45.000000	90.645905	-165.6872
46.200001	90.580826	-166.8555
47.500000	90.524162	-168.0514
48.700001	90.485451	-169.0932
50.000000	90.413101	-170.3986
51.500000	90.329651	-171.6519
53.000000	90.256050	-172.7927
54.500000	90.173843	-173.8963
56.000000	90.103706	-175.1423
58.000000	89.989975	-176.5486
60.000000	89.897095	-177.7740
61.500000	89.791962	-178.5358
63.000000	89.706421	-179.4727
65.000000	89.606598	179.4764
67.000000	89.517883	178.4290
69.000000	89.391022	177.5084
71.000000	89.294930	176.5234
73.000000	89.194366	175.6913
75.000000	89.082138	174.9101
77.500000	88.949722	173.9549
80.000000	88.817764	173.0236
82.500000	88.695213	172.2468
85.000000	88.565895	171.5325
87.500000	88.436485	170.7730
90.000000	88.324898	170.1417
92.500000	88.204300	169.5903
95.000000	88.080826	168.8421
97.500000	87.954590	168.0561
100.000000	87.853111	168.0188
103.000000	87.723221	167.5035
106.000000	87.593979	166.9835
109.000000	87.475952	166.5528
112.000000	87.342491	166.1841
115.000000	87.239067	165.8871
118.000000	87.131317	165.4972
122.000000	86.952240	165.2573
125.000000	86.851410	164.9328
128.000000	86.745087	164.8275
132.000000	86.615250	164.5904
136.000000	86.480927	164.3891
140.000000	86.364624	164.1587
145.000000	86.177116	164.0434
150.000000	86.036469	163.9831
155.000000	85.903114	164.0529
160.000000	85.751724	163.9833
165.000000	85.609169	163.8680
170.000000	85.480217	164.1081
175.000000	85.357040	164.2448
180.000000	85.209686	164.3690
185.000000	85.107643	164.6118
190.000000	84.990097	164.7618
195.000000	84.881149	164.9930
200.000000	84.777557	165.3103
206.000000	84.664825	165.5671
212.000000	84.536438	165.9779
218.000000	84.430878	166.3486
224.000000	84.321419	166.6627
230.000000	84.225166	167.0424
236.000000	84.110840	167.4341
243.000000	83.993820	167.9591
250.000000	83.906227	168.4424
258.000000	83.791504	169.0899
265.000000	83.702873	169.6044
272.000000	83.605858	170.1435
280.000000	83.513481	170.7558
290.000000	83.394234	171.5498
300.000000	83.304871	172.3666
307.000000	83.226768	172.9459
315.000000	83.150208	173.6318
325.000000	83.059593	174.4603
335.000000	82.990883	175.2415
345.000000	82.906761	176.1179
355.000000	82.839386	176.9311
365.000000	82.778130	177.7758
375.000000	82.723015	178.6497
387.000000	82.647949	179.6036
400.000000	82.587067	-179.3014
412.000000	82.540115	-178.2607
425.000000	82.492569	-177.2082
437.000000	82.451294	-176.1654
450.000000	82.407516	-175.0677
462.000000	82.387291	-174.1129
475.000000	82.353989	-173.0324
487.000000	82.330551	-172.0450
500.000000	82.311111	-170.9884
515.000000	82.293144	-169.7475
530.000000	82.282036	-168.5499
545.000000	82.276550	-167.3197
560.000000	82.279045	-166.1157
580.000000	82.284508	-164.5108
600.000000	82.308556	-162.9361
615.000000	82.324295	-161.7168
630.000000	82.346512	-160.5264
650.000000	82.387360	-158.9632
670.000000	82.434181	-157.4220
690.000000	82.490875	-155.8114
710.000000	82.557953	-154.5079
730.000000	82.562157	-152.7262
750.000000	82.664452	-150.9371
775.000000	82.803741	-148.9417
800.000000	82.947296	-147.0441
825.000000	83.105484	-145.1128
850.000000	83.279427	-143.2527
875.000000	83.469910	-141.4416
900.000000	83.680115	-139.6968
925.000000	83.906090	-138.0182
950.000000	84.146729	-136.4455
975.000000	84.401749	-134.9590
1000.000000	84.671509	-133.6068
1030.000000	85.002174	-132.1261
1060.000000	85.346390	-130.8124
1090.000000	85.697968	-129.6834
1120.000000	86.052177	-128.7053
1150.000000	86.408035	-127.8680
1180.000000	86.761589	-127.1760
1220.000000	87.234970	-126.4013
1250.000000	87.592316	-125.9650
1280.000000	87.950500	-125.6067
1320.000000	88.430084	-125.2805
1360.000000	88.919617	-125.1232
1400.000000	89.419983	-125.1626
1450.000000	90.059349	-125.5422
1500.000000	90.718681	-126.3546
1550.000000	91.390091	-127.6959
1600.000000	92.063927	-129.6729
1650.000000	92.717087	-132.3854
1700.000000	93.322990	-135.9028
1750.000000	93.843948	-140.2222
1800.000000	94.236671	-145.2418
1850.000000	94.465691	-150.7272
1900.000000	94.509171	-156.3349
1950.000000	94.369865	-161.6907
2000.000000	94.073242	-166.4592
2060.000000	93.559067	-171.1041
2120.000000	92.945633	-174.3895
2180.000000	92.299301	-176.2947
2240.000000	91.684761	-176.9520
2300.000000	91.149292	-176.6035
2360.000000	90.718048	-175.5524
2430.000000	90.354202	-173.7876
2500.000000	90.137589	-171.7910
2580.000000	90.051895	-169.5230
2650.000000	90.095589	-167.8259
2720.000000	90.219635	-166.5687
2800.000000	90.414001	-165.7427
2900.000000	90.682449	-165.5013
3000.000000	90.949203	-165.8884
3070.000000	91.143623	-166.3940
3150.000000	91.384247	-167.2362
3250.000000	91.723236	-168.8406
3350.000000	92.090271	-171.3680
3450.000000	92.431595	-175.1438
3550.000000	92.654968	179.6889
3650.000000	92.649567	173.3822
3750.000000	92.329086	166.6541
3870.000000	91.524895	159.4378
4000.000000	90.301697	154.1116
4120.000000	89.067772	151.9205
4250.000000	87.834007	152.1854
4370.000000	86.944130	154.1244
4500.000000	86.366692	156.5157
4620.000000	86.125771	156.8245
4750.000000	85.678162	153.7867
4870.000000	84.690643	150.7009
5000.000000	83.252647	150.4783
5150.000000	81.670212	154.0978
5300.000000	80.378029	159.9197
5450.000000	79.352646	166.9448
5600.000000	78.724251	174.2592
5800.000000	77.971161	-177.2535
6000.000000	77.445770	-168.0082
6150.000000	77.214500	-161.0979
6300.000000	77.111610	-154.2732
6500.000000	77.171814	-145.4314
6700.000000	77.456833	-136.9578
6900.000000	77.984245	-129.0096
7100.000000	78.783882	-121.9013
7300.000000	79.895729	-116.2297
7500.000000	81.302963	-112.9418
7750.000000	83.316048	-114.3834
8000.000000	84.899109	-124.0238
8250.000000	85.078049	-137.3872
8500.000000	84.095985	-145.8449
8750.000000	82.943352	-147.3555
9000.000000	82.209419	-144.3507
9250.000000	82.071396	-139.4267
9500.000000	82.556389	-134.4589
9750.000000	83.661934	-131.0605
10000.000000	85.312042	-131.0889
10300.000000	87.948700	-138.2220
10600.000000	90.282196	-160.4554
10900.000000	90.083183	168.8589
11200.000000	88.017929	147.8563
11500.000000	86.245087	135.3903
11800.000000	85.014587	121.3539
12200.000000	82.528160	99.9163
12500.000000	80.022003	87.1603
12800.000000	77.306198	78.7765
13200.000000	73.959953	76.9903
13600.000000	72.834534	80.0637
14000.000000	72.557800	71.8284
14500.000000	71.646950	60.3674
15000.000000	71.540413	49.8300
15500.000000	72.925133	31.5642
16000.000000	74.540771	-10.5510
16500.000000	72.436874	-66.1321
17000.000000	68.439224	-121.6342
17500.000000	63.822266	-163.9152
18000.000000	62.058384	146.8185
18500.000000	62.466831	81.8430
19000.000000	62.803040	-3.4242
19500.000000	60.523598	-100.8146
