* Measurement data measured by REW V5.20
* Source: Headset (USB-C to 3.5mm Headphone Jack Adapter), MICROPHONE (Master Volume), R, volume: 0.260
* Format: 256k Log Swept Sine, 1 sweep at -6.0 dBFS with no timing reference
* Dated: Aug 30, 2021 4:03:47 PM
* REW Settings:
*  C-weighting compensation: Off
*  Target level: 75.0 dB
* Note: ; 
* Measurement: Mammoth L
* Smoothing: 1/48 octave
* Frequency Step: 1/24 octave
* Start Frequency: 20.600 Hz
*
* Freq(Hz)	SPL(dB)	Phase(degrees)
20.600000	87.144836	-131.7579
21.200001	87.215485	-132.9838
21.799999	87.269409	-134.2243
22.400000	87.316422	-135.4201
23.000000	87.366737	-136.5582
23.600000	87.416016	-137.7202
24.299999	87.444710	-139.0665
25.000000	87.441277	-140.2153
25.799999	87.435883	-141.3928
26.500000	87.429672	-142.5504
27.200001	87.421982	-143.7524
28.000000	87.437866	-145.0929
29.000000	87.444664	-146.7050
30.000000	87.420685	-147.9111
30.700001	87.426865	-148.8221
31.500000	87.423866	-150.0619
32.500000	87.399361	-151.3381
33.500000	87.381477	-152.3602
34.500000	87.374191	-153.2860
35.500000	87.409477	-154.3197
36.500000	87.402824	-155.4941
37.500000	87.362343	-156.4553
38.700001	87.372574	-157.7696
40.000000	87.368561	-159.1611
41.200001	87.344391	-160.0180
42.500000	87.326485	-161.0762
43.700001	87.304649	-162.0916
45.000000	87.280685	-163.1799
46.200001	87.255508	-163.9978
47.500000	87.265717	-164.7676
48.700001	87.208542	-165.8353
50.000000	87.172363	-166.5160
51.500000	87.186119	-167.6642
53.000000	87.132156	-168.6561
54.500000	87.161438	-169.2846
56.000000	87.136856	-170.4847
58.000000	87.065491	-171.5872
60.000000	87.064583	-172.7551
61.500000	87.051956	-173.4218
63.000000	86.977127	-174.5449
65.000000	87.034378	-174.7815
67.000000	86.983727	-175.9139
69.000000	86.944473	-177.0369
71.000000	86.889847	-177.7516
73.000000	86.905640	-178.5676
75.000000	86.814201	-179.6813
77.500000	86.821564	179.8871
80.000000	86.820282	178.5894
82.500000	86.685059	177.5625
85.000000	86.709457	176.8929
87.500000	86.699890	175.5128
90.000000	86.641464	175.8018
92.500000	86.486794	174.5831
95.000000	86.360779	174.6843
97.500000	86.610474	172.7926
100.000000	86.531990	173.8754
103.000000	86.689819	171.5412
106.000000	86.706818	170.6091
109.000000	86.400558	169.6982
112.000000	86.297813	169.5291
115.000000	86.237541	168.8183
118.000000	86.178078	167.9242
122.000000	86.235031	166.4262
125.000000	86.138382	166.4020
128.000000	86.101273	165.0219
132.000000	86.028381	165.1945
136.000000	85.922180	163.3297
140.000000	85.912476	163.3026
145.000000	85.874977	161.8534
150.000000	85.763351	160.8986
155.000000	85.671768	160.1869
160.000000	85.608055	159.0669
165.000000	85.554871	158.4763
170.000000	85.469986	157.6350
175.000000	85.383987	156.7462
180.000000	85.331177	155.8142
185.000000	85.251358	155.2199
190.000000	85.181450	154.3994
195.000000	85.105400	153.5908
200.000000	85.001740	152.9858
206.000000	84.946854	152.1306
212.000000	84.833511	151.3317
218.000000	84.749573	150.5533
224.000000	84.648727	149.7755
230.000000	84.546791	149.0577
236.000000	84.449989	148.3314
243.000000	84.338318	147.5451
250.000000	84.225670	146.8193
258.000000	84.100792	145.9652
265.000000	83.975586	145.2974
272.000000	83.869141	144.6320
280.000000	83.738754	143.8556
290.000000	83.574883	143.0348
300.000000	83.409546	142.1553
307.000000	83.291122	141.5695
315.000000	83.158737	140.9482
325.000000	82.994713	140.2697
335.000000	82.826797	139.5875
345.000000	82.662376	138.9536
355.000000	82.499496	138.3447
365.000000	82.329666	137.7828
375.000000	82.168236	137.2669
387.000000	81.967903	136.7538
400.000000	81.750938	136.2207
412.000000	81.556679	135.7958
425.000000	81.344254	135.3825
437.000000	81.147102	135.1072
450.000000	80.943825	134.8150
462.000000	80.753815	134.6136
475.000000	80.546310	134.4425
487.000000	80.356468	134.3852
500.000000	80.150185	134.3941
515.000000	79.911903	134.5248
530.000000	79.678802	134.7758
545.000000	79.453636	135.2017
560.000000	79.245972	135.7745
580.000000	79.008705	136.7658
600.000000	78.823532	137.8662
615.000000	78.714409	138.6329
630.000000	78.623886	139.3707
650.000000	78.520477	140.2626
670.000000	78.430328	141.0630
690.000000	78.333298	141.8292
710.000000	78.243629	142.6139
730.000000	78.164543	143.4568
750.000000	78.086884	144.3633
775.000000	78.015007	145.5729
800.000000	77.957489	146.8714
825.000000	77.928162	148.2298
850.000000	77.929871	149.6251
875.000000	77.960213	151.0625
900.000000	78.019989	152.5145
925.000000	78.108536	153.9346
950.000000	78.229263	155.3150
975.000000	78.377480	156.6254
1000.000000	78.553528	157.8453
1030.000000	78.793900	159.1691
1060.000000	79.067490	160.3068
1090.000000	79.362625	161.2507
1120.000000	79.683891	161.9799
1150.000000	80.022530	162.4699
1180.000000	80.377457	162.7205
1220.000000	80.856247	162.6049
1250.000000	81.205330	162.1858
1280.000000	81.535599	161.4841
1320.000000	81.930519	160.2735
1360.000000	82.260643	158.9340
1400.000000	82.552750	157.6581
1450.000000	82.882584	156.1760
1500.000000	83.201912	154.7853
1550.000000	83.520065	153.3882
1600.000000	83.832420	151.9036
1650.000000	84.129456	150.3200
1700.000000	84.409683	148.6625
1750.000000	84.669090	146.9604
1800.000000	84.906921	145.2307
1850.000000	85.125664	143.5092
1900.000000	85.331772	141.8167
1950.000000	85.526390	140.1425
2000.000000	85.713570	138.4835
2060.000000	85.933319	136.4590
2120.000000	86.148682	134.3665
2180.000000	86.354660	132.1265
2240.000000	86.543198	129.6879
2300.000000	86.700134	126.9964
2360.000000	86.809067	124.0596
2430.000000	86.849548	120.3899
2500.000000	86.772690	116.6120
2580.000000	86.527893	112.4850
2650.000000	86.182503	109.3281
2720.000000	85.739235	106.8324
2800.000000	85.152527	104.9372
2900.000000	84.370033	104.0775
3000.000000	83.607140	104.7741
3070.000000	83.114441	106.0469
3150.000000	82.608322	108.1436
3250.000000	82.075333	111.5645
3350.000000	81.663780	115.6023
3450.000000	81.375320	120.0415
3550.000000	81.205414	124.7045
3650.000000	81.145798	129.4216
3750.000000	81.185158	134.1028
3870.000000	81.350883	139.5352
4000.000000	81.660263	145.0493
4120.000000	82.053680	149.6892
4250.000000	82.581215	154.0006
4370.000000	83.130989	157.1591
4500.000000	83.746223	159.6323
4620.000000	84.309738	161.1537
4750.000000	84.921509	161.9162
4870.000000	85.462189	161.4279
5000.000000	85.891953	159.2915
5150.000000	85.952751	155.6592
5300.000000	85.496292	153.2126
5450.000000	84.800644	153.7533
5600.000000	84.200935	157.0059
5800.000000	83.838608	163.2340
6000.000000	83.896873	168.6274
6150.000000	84.006294	171.3140
6300.000000	84.034843	173.2272
6500.000000	83.922043	175.6900
6700.000000	83.752838	178.6676
6900.000000	83.645157	-178.1904
7100.000000	83.611626	-175.6692
7300.000000	83.568108	-174.6625
7500.000000	83.293297	-175.1321
7750.000000	82.442154	-175.8987
8000.000000	81.136856	-174.4261
8250.000000	79.712738	-169.6969
8500.000000	78.437943	-162.3308
8750.000000	77.445068	-153.3151
9000.000000	76.876633	-143.6845
9250.000000	76.682648	-134.8029
9500.000000	76.909607	-127.5884
9750.000000	77.532379	-123.8831
10000.000000	78.290573	-126.5200
10300.000000	78.161011	-140.1165
10600.000000	75.525040	-153.9767
10900.000000	71.481277	-153.2056
11200.000000	68.545860	-139.2936
11500.000000	67.368790	-129.7555
11800.000000	65.634430	-127.9807
12200.000000	61.592663	-120.8943
12500.000000	58.158073	-106.1624
12800.000000	55.219917	-84.1190
13200.000000	53.165768	-47.5133
13600.000000	53.353813	-15.1345
14000.000000	54.624474	6.5645
14500.000000	56.192162	22.3335
15000.000000	57.951401	29.0779
15500.000000	60.522144	22.9845
16000.000000	63.326721	-11.4105
16500.000000	61.314579	-77.6141
17000.000000	53.018456	-115.8503
17500.000000	47.865807	-106.7201
18000.000000	49.334358	-110.2344
18500.000000	51.736927	-132.6379
19000.000000	55.163467	-173.9040
19500.000000	56.914017	111.7626
