* Measurement data measured by REW V5.20
* Source: Headset (USB-C to 3.5mm Headphone Jack Adapter), MICROPHONE (Master Volume), R, volume: 0.260
* Format: 512k Log Swept Sine, 1 sweep at 0.0 dBFS with no timing reference
* Dated: Apr 14, 2022 8:02:38 PM
* REW Settings:
*  C-weighting compensation: Off
*  Target level: 75.0 dB
* Note: ; 
* Measurement: MEXT L
* Smoothing: 1/48 octave
* Frequency Step: 1/24 octave
* Start Frequency: 20.600 Hz
*
* Freq(Hz)	SPL(dB)	Phase(degrees)
20.600000	100.210022	-148.8799
21.200001	100.245598	-150.3437
21.799999	100.263000	-151.7632
22.400000	100.260201	-153.2299
23.000000	100.247566	-154.7400
23.600000	100.240005	-156.1695
24.299999	100.229424	-157.6739
25.000000	100.202156	-159.0994
25.799999	100.150429	-160.7209
26.500000	100.102509	-162.1597
27.200001	100.063461	-163.5189
28.000000	100.007645	-164.9689
29.000000	99.940811	-166.7983
30.000000	99.867447	-168.4603
30.700001	99.813828	-169.6580
31.500000	99.761269	-170.9493
32.500000	99.684845	-172.5312
33.500000	99.610764	-174.0317
34.500000	99.532784	-175.4692
35.500000	99.454247	-176.8333
36.500000	99.373947	-178.1806
37.500000	99.298309	-179.4539
38.700001	99.200134	179.0487
40.000000	99.092926	177.4844
41.200001	98.997437	176.1621
42.500000	98.893677	174.6873
43.700001	98.795547	173.4888
45.000000	98.692429	172.1711
46.200001	98.595261	171.0094
47.500000	98.490616	169.8064
48.700001	98.393936	168.7368
50.000000	98.289581	167.6309
51.500000	98.172966	166.3944
53.000000	98.054169	165.2333
54.500000	97.935677	164.1234
56.000000	97.819107	163.0403
58.000000	97.666885	161.6854
60.000000	97.523758	160.4197
61.500000	97.404953	159.4908
63.000000	97.294647	158.6076
65.000000	97.147888	157.4896
67.000000	97.004318	156.4434
69.000000	96.860130	155.4361
71.000000	96.720421	154.4768
73.000000	96.582916	153.5992
75.000000	96.442833	152.7419
77.500000	96.275429	151.7320
80.000000	96.109680	150.7863
82.500000	95.946060	149.8867
85.000000	95.786240	149.0541
87.500000	95.629639	148.2764
90.000000	95.468796	147.5322
92.500000	95.329880	146.8283
95.000000	95.186432	146.1696
97.500000	95.045952	145.5388
100.000000	94.910545	144.9597
103.000000	94.753906	144.2982
106.000000	94.601578	143.6846
109.000000	94.453346	143.1077
112.000000	94.313835	142.5632
115.000000	94.178093	142.0688
118.000000	94.048500	141.5919
122.000000	93.878021	140.9941
125.000000	93.755653	140.5693
128.000000	93.639198	140.1862
132.000000	93.486710	139.7108
136.000000	93.338104	139.2851
140.000000	93.195503	138.8568
145.000000	93.025764	138.4004
150.000000	92.864418	137.9629
155.000000	92.710320	137.5617
160.000000	92.564056	137.2052
165.000000	92.423920	136.8956
170.000000	92.290886	136.5770
175.000000	92.164215	136.3128
180.000000	92.045120	136.0531
185.000000	91.931931	135.8052
190.000000	91.823990	135.5744
195.000000	91.722801	135.3650
200.000000	91.626091	135.1616
206.000000	91.517731	134.9329
212.000000	91.415222	134.7165
218.000000	91.320969	134.5095
224.000000	91.231049	134.2953
230.000000	91.147652	134.0959
236.000000	91.070808	133.8951
243.000000	90.990784	133.6421
250.000000	90.918114	133.3913
258.000000	90.840759	133.0951
265.000000	90.779610	132.8264
272.000000	90.723442	132.5295
280.000000	90.665955	132.1386
290.000000	90.605263	131.5585
300.000000	90.548347	130.7487
307.000000	90.498619	129.9013
315.000000	90.402321	128.2867
325.000000	89.591049	124.4555
335.000000	89.127892	135.2004
345.000000	89.964661	135.1430
355.000000	90.142197	133.6750
365.000000	90.203758	132.2378
375.000000	90.230751	130.7573
387.000000	90.107582	128.1400
400.000000	89.307068	127.1673
412.000000	89.172913	132.6594
425.000000	89.633125	133.8534
437.000000	89.842804	133.3357
450.000000	89.962105	132.6958
462.000000	90.030609	132.1665
475.000000	90.082657	131.6486
487.000000	90.120689	131.2109
500.000000	90.154984	130.7704
515.000000	90.186035	130.2601
530.000000	90.196579	129.7142
545.000000	90.192459	129.3101
560.000000	90.201927	129.0566
580.000000	90.228943	128.7863
600.000000	90.256027	128.5710
615.000000	90.274757	128.4407
630.000000	90.293488	128.3419
650.000000	90.319313	128.2696
670.000000	90.340836	128.2334
690.000000	90.358971	128.2806
710.000000	90.375771	128.3876
730.000000	90.394867	128.5658
750.000000	90.415817	128.8751
775.000000	90.467461	129.3048
800.000000	90.532379	129.6971
825.000000	90.594063	129.9883
850.000000	90.636597	130.2587
875.000000	90.658936	130.6649
900.000000	90.676170	131.2387
925.000000	90.701759	131.9490
950.000000	90.742233	132.7570
975.000000	90.794296	133.6105
1000.000000	90.859528	134.4509
1030.000000	90.947205	135.4807
1060.000000	91.045639	136.4438
1090.000000	91.148308	137.3474
1120.000000	91.249420	138.2057
1150.000000	91.345779	138.9791
1180.000000	91.432549	139.7487
1220.000000	91.531555	140.6755
1250.000000	91.587463	141.3799
1280.000000	91.631531	142.1372
1320.000000	91.674973	143.1917
1360.000000	91.703445	144.3403
1400.000000	91.719810	145.5865
1450.000000	91.731781	147.2924
1500.000000	91.742599	149.1307
1550.000000	91.743149	151.1456
1600.000000	91.756500	153.2447
1650.000000	91.769157	155.4434
1700.000000	91.792625	157.6996
1750.000000	91.819931	160.0040
1800.000000	91.855461	162.3294
1850.000000	91.902901	164.6451
1900.000000	91.949425	166.9758
1950.000000	92.006042	169.2692
2000.000000	92.070160	171.5115
2060.000000	92.148659	174.1468
2120.000000	92.233276	176.6782
2180.000000	92.324219	179.0829
2240.000000	92.408356	-178.6296
2300.000000	92.492073	-176.5033
2360.000000	92.569069	-174.5156
2430.000000	92.647125	-172.4158
2500.000000	92.698547	-170.5316
2580.000000	92.723145	-168.6209
2650.000000	92.720215	-167.1336
2720.000000	92.674210	-165.7585
2800.000000	92.589821	-164.3190
2900.000000	92.432144	-162.6097
3000.000000	92.239136	-160.9839
3070.000000	92.084061	-159.8700
3150.000000	91.907104	-158.6502
3250.000000	91.690521	-157.2279
3350.000000	91.489845	-155.9942
3450.000000	91.327911	-155.0408
3550.000000	91.186890	-154.3817
3650.000000	91.100983	-154.0742
3750.000000	91.071541	-154.1375
3870.000000	91.119690	-154.6819
4000.000000	91.301712	-155.6925
4120.000000	91.587776	-156.8977
4250.000000	92.048424	-158.4090
4370.000000	92.637016	-159.4627
4500.000000	93.482430	-161.1296
4620.000000	94.394089	-163.1567
4750.000000	95.450485	-166.4981
4870.000000	96.278893	-170.8876
5000.000000	96.820778	-175.6758
5150.000000	97.158607	-178.8878
5300.000000	97.542969	179.8016
5450.000000	97.987129	178.4664
5600.000000	98.300812	176.2945
5800.000000	98.274597	172.9465
6000.000000	97.575829	171.4751
6150.000000	96.837807	173.0839
6300.000000	96.071350	176.6825
6500.000000	95.131752	-175.9432
6700.000000	94.378700	-167.4587
6900.000000	93.598328	-158.2939
7100.000000	92.799713	-148.2352
7300.000000	91.985413	-136.2567
7500.000000	91.572586	-124.2758
7750.000000	90.362274	-111.3604
8000.000000	89.783096	-92.5991
8250.000000	88.998070	-76.0813
8500.000000	88.307510	-58.1440
8750.000000	87.717102	-39.4541
9000.000000	87.273964	-19.9334
9250.000000	87.095222	0.0542
9500.000000	87.218758	19.7128
9750.000000	87.742958	37.6428
10000.000000	88.332275	53.0928
10300.000000	89.225700	68.1947
10600.000000	89.892029	77.2902
10900.000000	89.331581	85.0993
11200.000000	89.087021	96.7865
11500.000000	88.824738	105.7376
11800.000000	88.016563	113.2226
12200.000000	86.416016	128.5924
12500.000000	85.319145	142.2587
12800.000000	84.360649	157.9003
13200.000000	83.989410	-179.3020
13600.000000	84.305313	-162.8652
14000.000000	84.547218	-154.1637
14500.000000	83.442924	-152.6840
15000.000000	80.161415	-150.3370
15500.000000	76.115196	-138.5364
16000.000000	72.952972	-128.7876
16500.000000	68.707497	-107.6157
17000.000000	71.281502	-93.3824
17500.000000	71.371834	-109.4298
18000.000000	71.466843	-122.8740
18500.000000	72.381859	-142.7514
19000.000000	73.393478	-179.3478
19500.000000	72.103554	118.9327
