* Measurement data measured by REW V5.20 Beta 59
* Source: Headset (USB-C to 3.5mm Headphone Jack Adapter), MICROPHONE (Master Volume), R, volume: 0.169
* Format: 256k Log Swept Sine, 1 sweep at -6.0 dBFS with no timing reference
* Dated: Sep 28, 2020 2:06:24 PM
* REW Settings:
*  C-weighting compensation: Off
*  Target level: 75.0 dB
* Note: ; 
* Measurement: Cat Ear Mia - R
* Smoothing: 1/48 octave
* Frequency Step: 1/24 octave
* Start Frequency: 20.600 Hz
*
* Freq(Hz)	SPL(dB)	Phase(degrees)
20.600000	79.619225	-107.9330
21.200001	79.723755	-110.0480
21.799999	79.843376	-111.7983
22.400000	80.000992	-113.2782
23.000000	80.165428	-114.7483
23.600000	80.294716	-116.3038
24.299999	80.417839	-118.1239
25.000000	80.574326	-120.0998
25.799999	80.739273	-122.7413
26.500000	80.790756	-124.7080
27.200001	80.837639	-125.9704
28.000000	80.967361	-127.5913
29.000000	81.059952	-130.2422
30.000000	81.149445	-131.9255
30.700001	81.282867	-133.2738
31.500000	81.356224	-135.3062
32.500000	81.365723	-137.2043
33.500000	81.447906	-138.8024
34.500000	81.508102	-140.6377
35.500000	81.566048	-142.4438
36.500000	81.582245	-143.9542
37.500000	81.629990	-144.9312
38.700001	81.769775	-147.0332
40.000000	81.805016	-149.0832
41.200001	81.692947	-150.0824
42.500000	81.698853	-151.7427
43.700001	81.768204	-153.7535
45.000000	81.786217	-154.4502
46.200001	81.731552	-156.2442
47.500000	81.763191	-157.5493
48.700001	81.856384	-158.2177
50.000000	81.787331	-159.4350
51.500000	81.731659	-161.5925
53.000000	81.724258	-162.2792
54.500000	81.748672	-163.7554
56.000000	81.735245	-164.8297
58.000000	81.681152	-166.4151
60.000000	81.684509	-168.1062
61.500000	81.640762	-169.2789
63.000000	81.664497	-170.1208
65.000000	81.578262	-171.2240
67.000000	81.507195	-172.3744
69.000000	81.506989	-173.1478
71.000000	81.498100	-174.8039
73.000000	81.587204	-176.9677
75.000000	81.363762	-176.4005
77.500000	81.283661	-177.7356
80.000000	81.192329	-178.4656
82.500000	81.175255	-179.8456
85.000000	81.042122	178.9471
87.500000	80.873901	178.7538
90.000000	81.636696	168.3881
92.500000	80.894348	177.3867
95.000000	80.767372	176.2110
97.500000	80.657143	175.8629
100.000000	80.626480	175.1354
103.000000	80.541573	174.1985
106.000000	80.469101	173.3206
109.000000	80.388741	172.6282
112.000000	80.316887	172.0483
115.000000	80.252075	171.3697
118.000000	80.130852	170.7765
122.000000	80.014801	170.0460
125.000000	79.932434	169.6849
128.000000	79.838165	169.1138
132.000000	79.719421	168.5435
136.000000	79.627029	167.9618
140.000000	79.512314	167.5416
145.000000	79.415237	167.0720
150.000000	79.239296	166.7406
155.000000	79.093277	166.2538
160.000000	78.980591	165.9962
165.000000	78.859604	165.8044
170.000000	78.764511	165.3997
175.000000	78.653374	165.0392
180.000000	78.567223	164.7328
185.000000	78.435471	164.6615
190.000000	78.328842	164.3374
195.000000	78.224243	164.3294
200.000000	78.113098	164.3417
206.000000	77.994522	164.0071
212.000000	77.858223	163.9500
218.000000	77.739929	163.5555
224.000000	77.628510	163.6694
230.000000	77.523094	163.8138
236.000000	77.411690	163.8746
243.000000	77.279648	163.9655
250.000000	77.160416	163.9653
258.000000	77.015648	164.1049
265.000000	76.900841	164.3499
272.000000	76.774689	164.4480
280.000000	76.637672	164.7120
290.000000	76.431664	164.8669
300.000000	76.366333	165.7592
307.000000	76.273857	166.0709
315.000000	76.217407	166.4408
325.000000	76.113953	166.7310
335.000000	75.996857	166.9946
345.000000	75.877663	167.3069
355.000000	75.759796	167.7244
365.000000	75.640404	168.1179
375.000000	75.530457	168.6167
387.000000	75.412186	169.1569
400.000000	75.266479	169.8047
412.000000	75.153442	170.4404
425.000000	75.038780	171.2127
437.000000	74.939949	171.9398
450.000000	74.828110	172.5952
462.000000	74.733032	173.3158
475.000000	74.633133	174.1078
487.000000	74.550995	174.8688
500.000000	74.466820	175.6872
515.000000	74.375496	176.6345
530.000000	74.288918	177.5558
545.000000	74.213539	178.4075
560.000000	74.105965	178.9352
580.000000	73.820480	-178.3395
600.000000	73.937828	-176.8496
615.000000	73.917046	-176.0366
630.000000	73.917114	-175.1790
650.000000	73.980354	-174.8004
670.000000	73.393723	-175.4832
690.000000	73.326920	-170.5389
710.000000	73.419151	-168.6123
730.000000	73.448654	-166.9738
750.000000	73.466942	-165.3404
775.000000	73.490860	-163.2794
800.000000	73.535271	-161.1721
825.000000	73.595261	-159.1008
850.000000	73.671364	-157.0216
875.000000	73.769905	-154.9852
900.000000	73.901566	-152.9531
925.000000	74.046562	-151.0186
950.000000	74.211548	-149.1826
975.000000	74.402428	-147.4091
1000.000000	74.609055	-145.7937
1030.000000	74.875641	-143.9936
1060.000000	75.155052	-142.4236
1090.000000	75.441826	-141.0568
1120.000000	75.734810	-139.8979
1150.000000	76.028511	-138.9134
1180.000000	76.313538	-138.1046
1220.000000	76.684013	-137.2304
1250.000000	76.950630	-136.7047
1280.000000	77.208572	-136.2336
1320.000000	77.541306	-135.7332
1360.000000	77.863052	-135.2995
1400.000000	78.180473	-134.9347
1450.000000	78.573471	-134.5634
1500.000000	78.972145	-134.2792
1550.000000	79.379967	-134.1114
1600.000000	79.800186	-134.1042
1650.000000	80.236794	-134.2952
1700.000000	80.683372	-134.7393
1750.000000	81.144699	-135.4845
1800.000000	81.610672	-136.6030
1850.000000	82.072350	-138.1277
1900.000000	82.517174	-140.1249
1950.000000	82.925461	-142.5587
2000.000000	83.289871	-145.4041
2060.000000	83.645508	-149.3752
2120.000000	83.877190	-153.7833
2180.000000	83.983536	-158.3306
2240.000000	83.967812	-162.9895
2300.000000	83.798363	-167.5027
2360.000000	83.498566	-171.5191
2430.000000	83.039993	-175.3199
2500.000000	82.516922	-178.1872
2580.000000	81.889603	179.6296
2650.000000	81.346382	178.5085
2720.000000	80.830452	178.0336
2800.000000	80.283333	178.0997
2900.000000	79.676590	178.8853
3000.000000	79.158234	-179.7614
3070.000000	78.841400	-178.5580
3150.000000	78.534271	-176.9984
3250.000000	78.210190	-174.8466
3350.000000	77.957970	-172.4869
3450.000000	77.775497	-169.9341
3550.000000	77.681633	-167.1795
3650.000000	77.708183	-164.3951
3750.000000	77.853889	-162.0530
3870.000000	78.085617	-160.1315
4000.000000	78.333122	-158.5135
4120.000000	78.603004	-157.1776
4250.000000	79.005287	-156.0687
4370.000000	79.480225	-155.7692
4500.000000	80.075333	-156.6989
4620.000000	80.655159	-159.0059
4750.000000	81.217514	-163.5294
4870.000000	81.540665	-169.5057
5000.000000	81.536194	-177.3372
5150.000000	80.969269	173.5749
5300.000000	79.906296	166.3226
5450.000000	78.572090	161.8781
5600.000000	77.187759	160.0822
5800.000000	75.450821	160.7437
6000.000000	73.903481	163.7746
6150.000000	72.884048	167.4802
6300.000000	72.164047	171.8003
6500.000000	71.252335	176.0851
6700.000000	70.357529	-178.4057
6900.000000	69.630974	-172.0767
7100.000000	69.093994	-165.3362
7300.000000	68.762604	-158.3211
7500.000000	68.613426	-151.2982
7750.000000	68.779022	-142.5237
8000.000000	69.369957	-134.4610
8250.000000	70.428955	-127.6663
8500.000000	72.111839	-122.9001
8750.000000	74.696587	-122.5847
9000.000000	78.319641	-134.5609
9250.000000	80.277611	-172.8229
9500.000000	77.016068	153.0890
9750.000000	72.874992	143.3671
10000.000000	69.783188	143.2486
10300.000000	67.097572	147.3475
10600.000000	65.113640	153.4384
10900.000000	63.590446	161.3889
11200.000000	62.618389	171.7905
11500.000000	62.702579	-174.8327
11800.000000	64.209541	-171.2714
12200.000000	64.632500	-171.7920
12500.000000	65.233223	-168.8889
12800.000000	66.571945	-167.0514
13200.000000	69.852875	-170.9804
13600.000000	74.807182	155.8769
14000.000000	72.210861	89.5405
14500.000000	64.199837	64.8441
15000.000000	58.949337	56.2991
15500.000000	55.081898	48.3095
16000.000000	52.552742	38.0580
16500.000000	51.613995	22.0178
17000.000000	52.765499	-1.3958
17500.000000	56.551052	-36.0371
18000.000000	62.088688	-102.2814
18500.000000	61.469845	162.0604
19000.000000	57.355698	92.4188
19500.000000	53.925129	25.6126
