* Measurement data measured by REW V5.20
* Source: Headset (USB-C to 3.5mm Headphone Jack Adapter), MICROPHONE (Master Volume), R, volume: 0.260
* Format: 512k Log Swept Sine, 1 sweep at 0.0 dBFS with no timing reference
* Dated: Jan 30, 2022 4:26:33 PM
* REW Settings:
*  C-weighting compensation: Off
*  Target level: 75.0 dB
* Note: ; 
* Measurement: Monarch (Sample 2) L
* Smoothing: 1/48 octave
* Frequency Step: 1/24 octave
* Start Frequency: 20.600 Hz
*
* Freq(Hz)	SPL(dB)	Phase(degrees)
20.600000	94.747871	-146.2817
21.200001	94.790764	-147.8178
21.799999	94.820129	-149.3167
22.400000	94.839630	-150.8356
23.000000	94.845108	-152.3091
23.600000	94.838524	-153.6673
24.299999	94.822609	-155.1870
25.000000	94.797081	-156.7312
25.799999	94.751282	-158.4418
26.500000	94.710312	-159.8222
27.200001	94.669617	-161.1850
28.000000	94.623016	-162.7868
29.000000	94.560501	-164.5575
30.000000	94.491768	-166.3504
30.700001	94.441277	-167.5540
31.500000	94.379402	-168.8629
32.500000	94.310959	-170.4477
33.500000	94.232178	-171.9990
34.500000	94.159973	-173.4547
35.500000	94.085083	-174.8440
36.500000	93.995056	-176.2941
37.500000	93.913834	-177.6182
38.700001	93.814926	-179.2143
40.000000	93.707413	179.2187
41.200001	93.605812	177.8340
42.500000	93.486427	176.3525
43.700001	93.384651	175.0871
45.000000	93.270287	173.7265
46.200001	93.166306	172.5551
47.500000	93.046005	171.2682
48.700001	92.928421	170.2575
50.000000	92.807487	169.0447
51.500000	92.666016	167.8110
53.000000	92.526772	166.6261
54.500000	92.385513	165.4608
56.000000	92.235977	164.4614
58.000000	92.056229	163.0933
60.000000	91.869286	161.7074
61.500000	91.721504	160.9186
63.000000	91.586472	160.0692
65.000000	91.391808	159.0709
67.000000	91.205475	158.0803
69.000000	91.017242	157.1987
71.000000	90.827446	156.3879
73.000000	90.639038	155.6155
75.000000	90.453987	154.9157
77.500000	90.223549	154.1110
80.000000	89.993958	153.4521
82.500000	89.765060	152.8492
85.000000	89.543793	152.3296
87.500000	89.328354	151.8603
90.000000	89.111954	151.3086
92.500000	88.908157	151.1322
95.000000	88.705887	150.9559
97.500000	88.507263	150.7618
100.000000	88.320122	150.6415
103.000000	88.101143	150.5497
106.000000	87.888527	150.5364
109.000000	87.686165	150.5796
112.000000	87.492622	150.6781
115.000000	87.307205	150.8380
118.000000	87.133316	151.0316
122.000000	86.875946	151.3607
125.000000	86.720932	151.5840
128.000000	86.595352	151.9815
132.000000	86.403572	152.4561
136.000000	86.228943	152.9271
140.000000	86.063110	153.5532
145.000000	85.869484	154.1758
150.000000	85.691200	154.9719
155.000000	85.555649	155.6484
160.000000	85.387184	156.4475
165.000000	85.258911	157.2155
170.000000	85.137131	157.9525
175.000000	85.026825	158.7068
180.000000	84.924683	159.4236
185.000000	84.836914	160.1412
190.000000	84.753937	160.8326
195.000000	84.678276	161.5043
200.000000	84.609245	162.1661
206.000000	84.535095	162.9248
212.000000	84.466621	163.6554
218.000000	84.403038	164.3501
224.000000	84.346710	165.0198
230.000000	84.289932	165.6893
236.000000	84.252396	166.3132
243.000000	84.199959	166.9468
250.000000	84.149933	167.6498
258.000000	84.095871	168.3757
265.000000	84.055511	168.9959
272.000000	84.019424	169.5623
280.000000	83.978806	170.2164
290.000000	83.929596	171.0031
300.000000	83.887817	171.7391
307.000000	83.853500	172.2284
315.000000	83.819939	172.7781
325.000000	83.778923	173.4511
335.000000	83.741440	174.1158
345.000000	83.702126	174.7453
355.000000	83.666084	175.3680
365.000000	83.634674	175.9804
375.000000	83.595245	176.5883
387.000000	83.556595	177.2914
400.000000	83.513435	178.0515
412.000000	83.475311	178.7395
425.000000	83.435226	179.4821
437.000000	83.399162	-179.8368
450.000000	83.361916	-179.0972
462.000000	83.328156	-178.4131
475.000000	83.292091	-177.6747
487.000000	83.261879	-176.9818
500.000000	83.227417	-176.2543
515.000000	83.191589	-175.3883
530.000000	83.156616	-174.5261
545.000000	83.124245	-173.6608
560.000000	83.094032	-172.7788
580.000000	83.057404	-171.5996
600.000000	83.024765	-170.4085
615.000000	83.003105	-169.4964
630.000000	82.982109	-168.5807
650.000000	82.961349	-167.3270
670.000000	82.944901	-166.0561
690.000000	82.934952	-164.7797
710.000000	82.929893	-163.4752
730.000000	82.930161	-162.1601
750.000000	82.937935	-160.8135
775.000000	82.958107	-159.0921
800.000000	82.993164	-157.3284
825.000000	83.046173	-155.5622
850.000000	83.116074	-153.7626
875.000000	83.204926	-151.9756
900.000000	83.315521	-150.2058
925.000000	83.443687	-148.4828
950.000000	83.593521	-146.8163
975.000000	83.762543	-145.2350
1000.000000	83.948364	-143.7544
1030.000000	84.190178	-142.1405
1060.000000	84.447678	-140.7216
1090.000000	84.713882	-139.5090
1120.000000	84.982864	-138.5136
1150.000000	85.249184	-137.7099
1180.000000	85.505074	-137.0862
1220.000000	85.827980	-136.4638
1250.000000	86.052582	-136.1246
1280.000000	86.262054	-135.8561
1320.000000	86.520256	-135.5685
1360.000000	86.757317	-135.3295
1400.000000	86.976776	-135.1060
1450.000000	87.233765	-134.8212
1500.000000	87.478012	-134.5249
1550.000000	87.717178	-134.2211
1600.000000	87.953041	-133.9213
1650.000000	88.189041	-133.6480
1700.000000	88.427902	-133.4120
1750.000000	88.669235	-133.2320
1800.000000	88.912560	-133.1252
1850.000000	89.157242	-133.1047
1900.000000	89.402672	-133.1798
1950.000000	89.646545	-133.3570
2000.000000	89.887474	-133.6394
2060.000000	90.169922	-134.1221
2120.000000	90.444824	-134.7641
2180.000000	90.708244	-135.5703
2240.000000	90.959709	-136.5475
2300.000000	91.197464	-137.7115
2360.000000	91.413895	-139.0951
2430.000000	91.632408	-141.0163
2500.000000	91.790657	-143.3067
2580.000000	91.849625	-146.3144
2650.000000	91.742958	-148.9575
2720.000000	91.483566	-150.9157
2800.000000	91.131126	-151.6649
2900.000000	90.846893	-151.1322
3000.000000	90.736320	-150.4669
3070.000000	90.701477	-150.1557
3150.000000	90.676346	-149.8888
3250.000000	90.659760	-149.5817
3350.000000	90.662186	-149.2557
3450.000000	90.688309	-148.9299
3550.000000	90.741432	-148.6545
3650.000000	90.819092	-148.5078
3750.000000	90.913506	-148.5624
3870.000000	91.031754	-148.9782
4000.000000	91.129715	-149.8876
4120.000000	91.154182	-151.0437
4250.000000	91.079330	-152.3307
4370.000000	90.918350	-153.1206
4500.000000	90.707062	-153.0622
4620.000000	90.596985	-152.1039
4750.000000	90.684402	-150.8608
4870.000000	90.944969	-150.5715
5000.000000	91.288162	-151.9789
5150.000000	91.524071	-155.8119
5300.000000	91.397568	-160.8628
5450.000000	90.885681	-165.4696
5600.000000	90.118271	-168.4475
5800.000000	88.977997	-169.4579
6000.000000	87.941109	-167.6905
6150.000000	87.314011	-165.1028
6300.000000	86.847404	-161.8204
6500.000000	86.503647	-156.9336
6700.000000	86.482918	-152.0871
6900.000000	86.792137	-147.9464
7100.000000	87.418617	-145.3896
7300.000000	88.269882	-145.6274
7500.000000	89.060326	-149.5017
7750.000000	89.469536	-157.8096
8000.000000	89.132942	-165.5587
8250.000000	88.540710	-169.9342
8500.000000	88.225304	-172.7969
8750.000000	88.009476	-177.2614
9000.000000	87.455238	176.9352
9250.000000	86.459015	172.8392
9500.000000	85.364044	172.0854
9750.000000	84.512222	173.9435
10000.000000	84.042725	176.9051
10300.000000	84.048943	179.7789
10600.000000	84.529221	179.0480
10900.000000	84.892349	172.9703
11200.000000	84.554947	165.4144
11500.000000	84.250687	161.5225
11800.000000	84.688698	155.5016
12200.000000	85.273949	139.0471
12500.000000	85.335693	123.3583
12800.000000	85.137390	105.1733
13200.000000	83.913025	78.2019
13600.000000	81.382996	56.7256
14000.000000	78.909157	45.0372
14500.000000	77.093506	35.1800
15000.000000	76.085136	19.4614
15500.000000	73.898308	-2.8663
16000.000000	70.351616	-18.6058
16500.000000	67.127228	-27.2317
17000.000000	65.210770	-35.7176
17500.000000	64.738411	-56.3546
18000.000000	64.721199	-95.2260
18500.000000	65.859024	-151.9850
19000.000000	69.135414	128.1634
19500.000000	71.773064	20.8706
