* Measurement data measured by REW V5.20
* Source: Headset (USB-C to 3.5mm Headphone Jack Adapter), MICROPHONE (Master Volume), R, volume: 0.260
* Format: 512k Log Swept Sine, 1 sweep at 0.0 dBFS with no timing reference
* Dated: Jan 30, 2022 3:52:55 PM
* REW Settings:
*  C-weighting compensation: Off
*  Target level: 75.0 dB
* Note: ; 
* Measurement: Monarch MK2 L
* Smoothing: 1/48 octave
* Frequency Step: 1/24 octave
* Start Frequency: 20.600 Hz
*
* Freq(Hz)	SPL(dB)	Phase(degrees)
20.600000	88.152664	-123.5383
21.200001	88.252731	-125.5801
21.799999	88.335419	-127.4933
22.400000	88.408997	-129.3209
23.000000	88.458298	-131.0293
23.600000	88.470871	-132.7197
24.299999	88.483414	-134.8275
25.000000	88.496147	-136.7187
25.799999	88.453049	-138.6931
26.500000	88.468704	-140.4655
27.200001	88.500168	-142.1180
28.000000	88.466614	-144.1666
29.000000	88.402031	-146.3551
30.000000	88.403412	-148.4777
30.700001	88.392075	-149.9412
31.500000	88.368813	-151.5925
32.500000	88.334419	-153.4027
33.500000	88.282288	-155.5680
34.500000	88.206299	-157.3363
35.500000	88.140244	-158.9090
36.500000	88.116997	-160.5655
37.500000	88.061356	-161.9688
38.700001	87.969604	-163.8309
40.000000	87.868057	-165.7783
41.200001	87.813522	-167.3512
42.500000	87.729347	-168.8383
43.700001	87.598717	-170.6254
45.000000	87.566887	-172.2677
46.200001	87.475494	-173.3285
47.500000	87.344589	-175.0218
48.700001	87.269211	-176.1974
50.000000	87.179016	-177.5149
51.500000	87.058136	-178.7361
53.000000	86.921097	179.8216
54.500000	86.803635	178.5468
56.000000	86.685654	177.2925
58.000000	86.523819	175.8563
60.000000	86.364128	174.1890
61.500000	86.233620	173.0718
63.000000	86.103157	172.6392
65.000000	85.933624	171.0984
67.000000	85.780960	170.1642
69.000000	85.591446	168.8320
71.000000	85.472328	168.2928
73.000000	85.310463	167.4641
75.000000	85.086731	166.3757
77.500000	84.917953	165.7922
80.000000	84.655441	164.7454
82.500000	84.523361	164.6460
85.000000	84.281250	163.0701
87.500000	84.188217	162.6741
90.000000	83.945915	162.0275
92.500000	83.603584	161.6862
95.000000	83.600967	161.8155
97.500000	83.410812	161.6770
100.000000	83.290398	162.3105
103.000000	83.005775	161.5176
106.000000	82.863029	160.7858
109.000000	82.690384	160.9910
112.000000	82.493301	160.9749
115.000000	82.327919	160.7405
118.000000	82.193367	161.2090
122.000000	81.928780	161.3134
125.000000	81.793381	161.7640
128.000000	81.657791	161.9192
132.000000	81.562973	162.0679
136.000000	81.330498	162.6164
140.000000	81.156021	162.6990
145.000000	81.067833	163.6476
150.000000	80.871025	163.7487
155.000000	80.647369	164.5169
160.000000	80.409172	164.6577
165.000000	80.626968	164.3362
170.000000	80.295204	169.2895
175.000000	80.335579	165.8615
180.000000	80.114273	167.7206
185.000000	79.906075	167.9482
190.000000	79.960960	172.4062
195.000000	80.070328	171.2257
200.000000	79.866333	171.9728
206.000000	79.744064	172.0803
212.000000	79.769623	173.0408
218.000000	79.716255	173.6924
224.000000	79.658722	174.4576
230.000000	79.609489	175.4403
236.000000	79.569351	176.0291
243.000000	79.598282	176.6661
250.000000	79.555748	177.7578
258.000000	79.545174	178.4374
265.000000	79.499313	179.0179
272.000000	79.499756	179.7307
280.000000	79.514877	-179.4376
290.000000	79.506134	-178.3503
300.000000	79.514877	-177.7824
307.000000	79.527985	-177.2878
315.000000	79.521431	-176.7124
325.000000	79.550041	-175.2513
335.000000	79.552475	-177.8378
345.000000	79.505959	-175.2601
355.000000	79.528809	-173.3061
365.000000	79.578094	-172.8177
375.000000	79.509705	-172.9285
387.000000	79.604301	-171.8208
400.000000	79.542366	-171.6401
412.000000	79.581223	-170.9058
425.000000	79.483467	-170.5341
437.000000	79.599228	-168.9593
450.000000	79.696564	-168.0477
462.000000	79.475502	-167.8323
475.000000	79.615234	-166.8521
487.000000	79.540840	-166.8096
500.000000	79.591568	-166.2450
515.000000	79.549187	-165.3763
530.000000	79.503197	-164.4040
545.000000	79.548492	-163.1905
560.000000	79.630920	-163.2696
580.000000	79.517029	-161.7838
600.000000	79.500908	-161.6863
615.000000	79.397652	-159.7936
630.000000	79.495613	-159.8137
650.000000	79.575897	-157.6307
670.000000	79.387596	-157.1321
690.000000	79.417526	-157.0299
710.000000	79.537788	-154.6641
730.000000	79.503883	-152.5515
750.000000	79.524055	-150.6968
775.000000	79.736206	-149.7965
800.000000	79.485352	-148.0670
825.000000	79.816109	-145.7514
850.000000	79.888931	-145.0343
875.000000	80.153381	-142.7955
900.000000	80.334686	-141.4877
925.000000	80.492149	-140.5267
950.000000	80.424866	-139.4750
975.000000	80.821152	-138.9849
1000.000000	80.812592	-138.3312
1030.000000	81.004372	-137.0013
1060.000000	81.191856	-135.7396
1090.000000	81.299797	-134.3715
1120.000000	81.510658	-133.3252
1150.000000	81.737946	-132.5273
1180.000000	81.923370	-131.8769
1220.000000	82.101295	-131.3117
1250.000000	82.232880	-130.3522
1280.000000	82.449860	-129.8754
1320.000000	82.616959	-129.4699
1360.000000	82.832977	-129.2275
1400.000000	82.955055	-128.2595
1450.000000	83.119492	-127.3302
1500.000000	83.345299	-126.8218
1550.000000	83.527634	-125.5711
1600.000000	83.760315	-124.6142
1650.000000	83.987396	-124.0496
1700.000000	84.058136	-123.6173
1750.000000	84.394333	-122.2058
1800.000000	84.596558	-121.5052
1850.000000	84.844597	-120.9295
1900.000000	85.113121	-120.4237
1950.000000	85.350349	-119.5756
2000.000000	85.641861	-119.6825
2060.000000	86.020691	-119.3970
2120.000000	86.361221	-119.7526
2180.000000	86.664833	-120.0610
2240.000000	87.005135	-120.4578
2300.000000	87.309273	-121.5551
2360.000000	87.573105	-122.6670
2430.000000	87.886681	-123.8824
2500.000000	88.134193	-126.0484
2580.000000	88.205734	-127.8892
2650.000000	88.219574	-129.9992
2720.000000	88.293259	-131.4755
2800.000000	88.290688	-133.0729
2900.000000	88.250702	-134.4603
3000.000000	88.183052	-135.8243
3070.000000	88.216148	-136.6324
3150.000000	88.186882	-137.4451
3250.000000	88.144386	-138.6784
3350.000000	88.154503	-139.9663
3450.000000	88.125458	-141.2948
3550.000000	88.077690	-143.3781
3650.000000	87.999100	-145.8139
3750.000000	87.697525	-148.9762
3870.000000	86.981186	-152.5051
4000.000000	85.679192	-153.0562
4120.000000	84.509651	-147.9845
4250.000000	84.119354	-138.5163
4370.000000	84.578659	-131.4534
4500.000000	85.422905	-127.8218
4620.000000	86.231377	-127.5286
4750.000000	86.950272	-129.8725
4870.000000	87.398598	-133.7613
5000.000000	87.618027	-139.2575
5150.000000	87.468231	-146.2157
5300.000000	86.872375	-152.8208
5450.000000	85.950798	-157.8752
5600.000000	84.850151	-160.7196
5800.000000	83.408638	-161.4579
6000.000000	82.171951	-159.7909
6150.000000	81.433968	-157.6395
6300.000000	80.848396	-155.0799
6500.000000	80.306122	-151.3275
6700.000000	80.019234	-147.6552
6900.000000	79.999046	-144.4554
7100.000000	80.199326	-141.7526
7300.000000	80.720192	-139.5107
7500.000000	81.578178	-140.5639
7750.000000	82.299606	-145.3145
8000.000000	82.649864	-152.0580
8250.000000	82.434189	-158.6825
8500.000000	81.799133	-162.8769
8750.000000	81.068336	-163.8517
9000.000000	80.499855	-162.3252
9250.000000	80.187607	-159.4558
9500.000000	80.177353	-156.4532
9750.000000	80.442284	-154.0046
10000.000000	80.996605	-152.9209
10300.000000	82.036324	-155.0950
10600.000000	83.223747	-162.9306
10900.000000	84.050835	-177.5431
11200.000000	83.916870	164.9624
11500.000000	83.137276	149.7314
11800.000000	82.252441	137.3009
12200.000000	81.227013	124.0821
12500.000000	80.671700	116.0405
12800.000000	80.397766	108.0379
13200.000000	80.064980	93.8485
13600.000000	78.582794	76.5887
14000.000000	75.724716	66.0397
14500.000000	72.133202	65.1827
15000.000000	69.485771	68.7412
15500.000000	67.437744	69.2106
16000.000000	65.281670	63.6042
16500.000000	62.415184	49.3224
17000.000000	57.651020	21.2026
17500.000000	50.593861	-43.9955
18000.000000	53.003384	-133.1537
18500.000000	57.732059	-178.9114
19000.000000	61.093834	138.5178
19500.000000	63.463665	78.7916
