* Measurement data measured by REW V5.20
* Source: Headset (USB-C to 3.5mm Headphone Jack Adapter), MICROPHONE (Master Volume), R, volume: 0.260
* Format: 512k Log Swept Sine, 1 sweep at 0.0 dBFS with no timing reference
* Dated: Jan 30, 2022 4:25:52 PM
* REW Settings:
*  C-weighting compensation: Off
*  Target level: 75.0 dB
* Note: ; 
* Measurement: Monarch (Sample 2) R
* Smoothing: 1/48 octave
* Frequency Step: 1/24 octave
* Start Frequency: 20.600 Hz
*
* Freq(Hz)	SPL(dB)	Phase(degrees)
20.600000	94.772331	-146.1718
21.200001	94.818344	-147.7406
21.799999	94.849182	-149.2432
22.400000	94.861877	-150.7341
23.000000	94.859436	-152.2004
23.600000	94.852028	-153.6061
24.299999	94.835022	-155.1914
25.000000	94.804131	-156.7767
25.799999	94.768661	-158.4958
26.500000	94.740990	-159.8554
27.200001	94.702187	-161.1676
28.000000	94.637413	-162.7345
29.000000	94.566925	-164.6562
30.000000	94.495407	-166.4080
30.700001	94.443405	-167.6143
31.500000	94.377846	-169.0062
32.500000	94.308739	-170.6418
33.500000	94.226288	-172.1118
34.500000	94.147774	-173.6267
35.500000	94.064178	-175.0297
36.500000	93.980446	-176.4271
37.500000	93.902130	-177.8559
38.700001	93.792145	-179.3145
40.000000	93.679001	179.0612
41.200001	93.570442	177.7026
42.500000	93.453529	176.2467
43.700001	93.333534	174.9427
45.000000	93.231972	173.5916
46.200001	93.110992	172.3622
47.500000	92.990082	171.1273
48.700001	92.874573	170.0508
50.000000	92.754837	168.9666
51.500000	92.608437	167.7206
53.000000	92.460434	166.5601
54.500000	92.317825	165.4772
56.000000	92.169228	164.4044
58.000000	91.977921	163.1063
60.000000	91.777267	161.7880
61.500000	91.638084	161.0361
63.000000	91.498436	160.2149
65.000000	91.307938	159.2189
67.000000	91.120087	158.2748
69.000000	90.925110	157.4414
71.000000	90.737892	156.6472
73.000000	90.548050	155.9756
75.000000	90.369270	155.3361
77.500000	90.135483	154.5850
80.000000	89.907684	153.9769
82.500000	89.687469	153.4186
85.000000	89.470634	152.9420
87.500000	89.256088	152.5646
90.000000	89.034531	152.0493
92.500000	88.852654	152.0106
95.000000	88.656754	151.7615
97.500000	88.466919	151.6437
100.000000	88.282898	151.5615
103.000000	88.074493	151.5244
106.000000	87.874069	151.5320
109.000000	87.678902	151.6136
112.000000	87.504105	151.7460
115.000000	87.331604	151.9237
118.000000	87.166908	152.1096
122.000000	86.958885	152.4358
125.000000	86.816277	152.7852
128.000000	86.755280	153.3389
132.000000	86.500931	153.4810
136.000000	86.328644	153.9470
140.000000	86.181404	154.4773
145.000000	86.008858	155.0880
150.000000	85.849159	155.7640
155.000000	85.699738	156.4281
160.000000	85.582924	157.0984
165.000000	85.443932	157.7474
170.000000	85.330620	158.4012
175.000000	85.226639	159.0590
180.000000	85.131676	159.6933
185.000000	85.045219	160.2888
190.000000	84.964882	160.8940
195.000000	84.887192	161.4708
200.000000	84.816650	162.0383
206.000000	84.740387	162.6921
212.000000	84.668640	163.3302
218.000000	84.602852	163.9259
224.000000	84.539612	164.5345
230.000000	84.483086	165.0999
236.000000	84.429810	165.6476
243.000000	84.369019	166.2589
250.000000	84.311325	166.8312
258.000000	84.252045	167.4971
265.000000	84.200012	168.0432
272.000000	84.151527	168.5794
280.000000	84.098648	169.1761
290.000000	84.035591	169.8883
300.000000	83.970573	170.5991
307.000000	83.934235	171.0546
315.000000	83.888481	171.5909
325.000000	83.833626	172.2407
335.000000	83.780029	172.8897
345.000000	83.726433	173.5114
355.000000	83.677765	174.1281
365.000000	83.629295	174.7571
375.000000	83.582146	175.3511
387.000000	83.526596	176.0912
400.000000	83.468216	176.8764
412.000000	83.417259	177.5963
425.000000	83.362595	178.3782
437.000000	83.314598	179.1103
450.000000	83.265388	179.8920
462.000000	83.220016	-179.3776
475.000000	83.173874	-178.5845
487.000000	83.133049	-177.8592
500.000000	83.091423	-177.0473
515.000000	83.045959	-176.1203
530.000000	83.002960	-175.1665
545.000000	82.964455	-174.2144
560.000000	82.929497	-173.2640
580.000000	82.888168	-171.9800
600.000000	82.850533	-170.6984
615.000000	82.824654	-169.7243
630.000000	82.801483	-168.7346
650.000000	82.776321	-167.3927
670.000000	82.757401	-166.0241
690.000000	82.745857	-164.6305
710.000000	82.743401	-163.2136
730.000000	82.750725	-161.8001
750.000000	82.765785	-160.3748
775.000000	82.795273	-158.5881
800.000000	82.837257	-156.7791
825.000000	82.893738	-154.9476
850.000000	82.968430	-153.1083
875.000000	83.062149	-151.2713
900.000000	83.174927	-149.4532
925.000000	83.309723	-147.6740
950.000000	83.463997	-145.9588
975.000000	83.638878	-144.3255
1000.000000	83.830132	-142.8060
1030.000000	84.080368	-141.1388
1060.000000	84.347382	-139.6782
1090.000000	84.624168	-138.4273
1120.000000	84.903938	-137.4014
1150.000000	85.180153	-136.5808
1180.000000	85.447884	-135.9410
1220.000000	85.784149	-135.3083
1250.000000	86.019554	-134.9697
1280.000000	86.239937	-134.7021
1320.000000	86.511139	-134.4276
1360.000000	86.760544	-134.2039
1400.000000	86.993156	-134.0017
1450.000000	87.266617	-133.7515
1500.000000	87.528976	-133.4945
1550.000000	87.783707	-133.2422
1600.000000	88.036827	-133.0038
1650.000000	88.290489	-132.7933
1700.000000	88.546730	-132.6404
1750.000000	88.804245	-132.5546
1800.000000	89.063492	-132.5543
1850.000000	89.324409	-132.6491
1900.000000	89.583145	-132.8545
1950.000000	89.839005	-133.1704
2000.000000	90.090218	-133.6088
2060.000000	90.382088	-134.2950
2120.000000	90.660286	-135.1540
2180.000000	90.921661	-136.1851
2240.000000	91.163849	-137.3863
2300.000000	91.383636	-138.7567
2360.000000	91.577545	-140.3074
2430.000000	91.762650	-142.3637
2500.000000	91.886108	-144.7074
2580.000000	91.909615	-147.6694
2650.000000	91.782669	-150.2112
2720.000000	91.519531	-152.0987
2800.000000	91.165977	-152.8870
2900.000000	90.854797	-152.4440
3000.000000	90.706818	-151.6934
3070.000000	90.654327	-151.2439
3150.000000	90.620056	-150.7945
3250.000000	90.605553	-150.2763
3350.000000	90.619530	-149.7845
3450.000000	90.663490	-149.3454
3550.000000	90.737030	-149.0266
3650.000000	90.834343	-148.8974
3750.000000	90.945435	-149.0385
3870.000000	91.072937	-149.6505
4000.000000	91.153023	-150.8768
4120.000000	91.117371	-152.3305
4250.000000	90.919479	-153.6453
4370.000000	90.632225	-153.8454
4500.000000	90.368782	-152.5544
4620.000000	90.328438	-150.5168
4750.000000	90.561623	-148.6794
4870.000000	90.949699	-148.3983
5000.000000	91.383003	-150.1629
5150.000000	91.654305	-154.5320
5300.000000	91.507942	-159.9410
5450.000000	90.959244	-164.6171
5600.000000	90.166809	-167.4644
5800.000000	89.024933	-168.1800
6000.000000	88.019455	-166.1528
6150.000000	87.429710	-163.4234
6300.000000	87.007324	-160.0747
6500.000000	86.724777	-155.1666
6700.000000	86.779938	-150.4055
6900.000000	87.171844	-146.5992
7100.000000	87.864929	-144.6389
7300.000000	88.736382	-145.7496
7500.000000	89.459373	-150.4383
7750.000000	89.731461	-158.9950
8000.000000	89.349823	-166.3092
8250.000000	88.825272	-170.8525
8500.000000	88.460327	-174.5956
8750.000000	88.073517	-179.6544
9000.000000	87.277611	175.1985
9250.000000	86.189690	172.6648
9500.000000	85.157242	173.2169
9750.000000	84.460243	175.7376
10000.000000	84.135368	178.3715
10300.000000	84.186378	179.9810
10600.000000	84.432205	178.2122
10900.000000	84.485184	173.2353
11200.000000	84.175629	168.4108
11500.000000	84.214890	165.0560
11800.000000	84.789291	157.8998
12200.000000	85.288368	140.7115
12500.000000	85.349846	125.8360
12800.000000	85.397491	107.1849
13200.000000	83.904541	78.5407
13600.000000	81.204460	59.2634
14000.000000	78.846359	48.9982
14500.000000	77.102280	39.7182
15000.000000	76.002815	25.2017
15500.000000	73.841766	5.7083
16000.000000	70.712936	-6.2390
16500.000000	68.980484	-14.7904
17000.000000	67.921921	-37.7654
17500.000000	65.879501	-68.1277
18000.000000	64.848419	-104.6456
18500.000000	66.388283	-158.3854
19000.000000	70.144135	123.6566
19500.000000	72.752342	18.1041
