* Measurement data measured by REW V5.20 Beta 13
* Source: Input device not selected, no input selected, R, volume: no control
* Format: 1M Log Swept Sine, 1 sweep at -20.0 dBFS  With no timing reference
* Dated: Jul 13, 2019 8:51:45 PM
* REW Settings:
*  C-weighting compensation: Off
*  Target level: 75.0 dB
* Note: ; 
* Measurement: TFZ No3 - L
* Smoothing: 1/48 octave
* Frequency Step: 1/24 octave
* Start Frequency: 20.000 Hz
*
* Freq(Hz)	SPL(dB)	Phase(degrees)
20.000000	82.503220	21.9598
20.600000	82.568932	20.6758
21.200001	82.610718	19.8425
21.799999	82.669640	18.9508
22.400000	82.702057	17.7888
23.000000	82.693436	16.6293
23.600000	82.684547	15.6210
24.299999	82.703018	14.4168
25.000000	82.723686	13.1143
25.799999	82.747864	11.7516
26.500000	82.785439	10.6193
27.200001	82.817886	9.4865
28.000000	82.840118	8.3021
29.000000	82.846977	6.9423
30.000000	82.833893	5.7930
30.700001	82.827850	4.9364
31.500000	82.775620	3.9458
32.500000	82.736526	3.3639
33.500000	82.830902	2.1629
34.500000	82.778687	0.3607
35.500000	82.724808	-0.3476
36.500000	82.792038	-1.5257
37.500000	82.738037	-2.9793
38.700001	82.699989	-3.7459
40.000000	82.711502	-5.1423
41.200001	82.677994	-6.1301
42.500000	82.663116	-7.5129
43.700001	82.608063	-8.5630
45.000000	82.531258	-9.7778
46.200001	82.475945	-10.3715
47.500000	82.439270	-11.3754
48.700001	82.432053	-11.9787
50.000000	82.417557	-13.4202
51.500000	82.310539	-14.3530
53.000000	82.254814	-15.2644
54.500000	82.199776	-16.1865
56.000000	82.127457	-17.1402
58.000000	82.031189	-18.4462
60.000000	81.895226	-19.3360
61.500000	81.921265	-20.1698
63.000000	81.861633	-21.1390
65.000000	81.779602	-22.2162
67.000000	81.690636	-23.1751
69.000000	81.632278	-23.9338
71.000000	81.538338	-24.9548
73.000000	81.448189	-25.8413
75.000000	81.371307	-26.7639
77.500000	81.285156	-27.7512
80.000000	81.185547	-28.6658
82.500000	81.059570	-29.5149
85.000000	80.965050	-30.9289
87.500000	80.968025	-31.7692
90.000000	81.262230	-33.5798
92.500000	80.756653	-33.4137
95.000000	80.589088	-33.7669
97.500000	80.470741	-34.7765
100.000000	80.416740	-35.6683
103.000000	80.262604	-36.3782
106.000000	80.112122	-37.3480
109.000000	80.006538	-38.2835
112.000000	79.874519	-38.9423
115.000000	79.740410	-39.7134
118.000000	79.633385	-40.3519
122.000000	79.470634	-41.1870
125.000000	79.331604	-41.8046
128.000000	79.191978	-42.3367
132.000000	79.044205	-43.3047
136.000000	78.873238	-43.9448
140.000000	78.716400	-44.2924
145.000000	78.489746	-45.0854
150.000000	78.338371	-45.6199
155.000000	78.197327	-46.2989
160.000000	77.996384	-47.0233
165.000000	77.812576	-47.7478
170.000000	77.602158	-48.2152
175.000000	77.406830	-48.6690
180.000000	77.197517	-48.9421
185.000000	77.012360	-49.3504
190.000000	76.795303	-49.2904
195.000000	76.601578	-48.7990
200.000000	76.509209	-48.1534
206.000000	76.562836	-47.9570
212.000000	76.521965	-48.9022
218.000000	76.385246	-49.9879
224.000000	76.212051	-50.7092
230.000000	76.043900	-51.0993
236.000000	75.854446	-51.1544
243.000000	75.658043	-51.5725
250.000000	75.481514	-51.7463
258.000000	75.278671	-51.8407
265.000000	75.103943	-52.0196
272.000000	74.952309	-52.0729
280.000000	74.782410	-52.1857
290.000000	74.546707	-52.1049
300.000000	74.324188	-52.2081
307.000000	74.225723	-52.0502
315.000000	74.044983	-52.0538
325.000000	73.888725	-51.8318
335.000000	73.697456	-51.4849
345.000000	73.551987	-51.2136
355.000000	73.374153	-51.1203
365.000000	73.200951	-50.9627
375.000000	73.084389	-50.4555
387.000000	72.904884	-50.2498
400.000000	72.713112	-49.6812
412.000000	72.574966	-49.5785
425.000000	72.420006	-48.9461
437.000000	72.288040	-48.4775
450.000000	72.148926	-48.0317
462.000000	72.032883	-47.2991
475.000000	71.895103	-46.9633
487.000000	71.797020	-46.4776
500.000000	71.633553	-45.7865
515.000000	71.561996	-45.0756
530.000000	71.408043	-44.2404
545.000000	71.307724	-43.5315
560.000000	71.204590	-42.8436
580.000000	71.043953	-41.4381
600.000000	70.934708	-40.3013
615.000000	70.846596	-39.4339
630.000000	70.805832	-38.6192
650.000000	70.701385	-37.2329
670.000000	70.658463	-35.7935
690.000000	70.617920	-34.5378
710.000000	70.584045	-32.9531
730.000000	70.534691	-31.7151
750.000000	70.481689	-30.0280
775.000000	70.574722	-27.6761
800.000000	70.672295	-26.0910
825.000000	70.763008	-24.3928
850.000000	70.913864	-22.6815
875.000000	71.032272	-21.2453
900.000000	71.221367	-19.8194
925.000000	71.363266	-18.4173
950.000000	71.520660	-17.0340
975.000000	71.691650	-15.9945
1000.000000	71.781799	-14.5763
1030.000000	72.157562	-13.2124
1060.000000	72.412918	-11.9318
1090.000000	72.730377	-10.6573
1120.000000	73.045387	-9.8689
1150.000000	73.401566	-9.0362
1180.000000	73.740021	-8.5916
1220.000000	74.165863	-8.1150
1250.000000	74.510391	-8.0682
1280.000000	74.813942	-8.1789
1320.000000	75.197342	-8.5566
1360.000000	75.537918	-8.8233
1400.000000	75.866615	-9.1368
1450.000000	76.244278	-9.6152
1500.000000	76.640884	-9.9534
1550.000000	77.015816	-10.5572
1600.000000	77.376312	-10.9548
1650.000000	77.783264	-11.5415
1700.000000	78.162231	-12.1275
1750.000000	78.537193	-12.8547
1800.000000	78.924644	-13.7811
1850.000000	79.330513	-14.8688
1900.000000	79.710846	-16.1573
1950.000000	80.068954	-17.6782
2000.000000	80.420189	-19.4911
2060.000000	80.836487	-21.7309
2120.000000	81.186691	-24.3595
2180.000000	81.469742	-27.1970
2240.000000	81.682579	-30.1339
2300.000000	81.833000	-33.1607
2360.000000	81.908119	-36.0822
2430.000000	81.907806	-39.2856
2500.000000	81.814636	-42.0991
2580.000000	81.659309	-44.7616
2650.000000	81.465927	-46.5111
2720.000000	81.266090	-47.6314
2800.000000	81.046295	-48.3369
2900.000000	80.839188	-48.3582
3000.000000	80.705154	-48.0894
3070.000000	80.646492	-47.8801
3150.000000	80.577629	-47.3411
3250.000000	80.546371	-46.2887
3350.000000	80.593842	-44.9025
3450.000000	80.738922	-43.5751
3550.000000	80.971825	-42.3706
3650.000000	81.278404	-41.6418
3750.000000	81.642387	-41.4026
3870.000000	82.118240	-42.0368
4000.000000	82.613663	-44.0702
4120.000000	82.993240	-47.3665
4250.000000	83.144142	-52.1551
4370.000000	83.048447	-57.0058
4500.000000	82.590973	-62.4679
4620.000000	81.801643	-66.4846
4750.000000	80.730591	-68.5993
4870.000000	79.652832	-68.3213
5000.000000	78.544380	-66.0080
5150.000000	77.425140	-61.6821
5300.000000	76.449661	-55.8208
5450.000000	75.637566	-48.9877
5600.000000	74.970917	-41.4157
5800.000000	74.345306	-30.3265
6000.000000	74.007408	-18.7083
6150.000000	73.911026	-9.6666
6300.000000	73.985252	-0.5477
6500.000000	74.343155	11.6572
6700.000000	75.074661	23.4997
6900.000000	76.228897	34.4331
7100.000000	77.920387	43.7904
7300.000000	80.319824	48.7234
7500.000000	83.375259	42.8084
7750.000000	83.898987	9.6269
8000.000000	80.904716	14.3034
8250.000000	79.700035	3.7443
8500.000000	77.182556	9.2038
8750.000000	75.934868	20.0379
9000.000000	75.675140	29.5286
9250.000000	76.211395	33.9303
9500.000000	76.595062	26.2088
9750.000000	74.670319	12.2503
10000.000000	70.846436	9.6687
10300.000000	66.244553	20.4851
10600.000000	62.483955	39.6301
10900.000000	59.460518	63.1680
11200.000000	56.872086	88.0504
11500.000000	54.957321	115.7816
11800.000000	53.553741	143.5695
12200.000000	52.363892	-175.0811
12500.000000	52.316776	-147.3425
12800.000000	52.577366	-120.7127
13200.000000	53.969013	-88.0639
13600.000000	55.471260	-60.7887
14000.000000	56.726223	-42.6793
14500.000000	57.966621	-18.1593
15000.000000	59.670273	0.7954
15500.000000	61.847008	7.7095
16000.000000	60.182804	1.3090
16500.000000	56.459480	19.0233
17000.000000	54.456848	47.4100
17500.000000	53.062473	77.0646
18000.000000	52.869568	107.6956
18500.000000	54.196457	127.3606
19000.000000	56.309441	133.2652
19500.000000	56.949280	112.6695
