* Measurement data measured by REW V5.20
* Source: Headset (USB-C to 3.5mm Headphone Jack Adapter), MICROPHONE (Master Volume), R, volume: 0.260
* Format: 256k Log Swept Sine, 1 sweep at -6.0 dBFS with no timing reference
* Dated: Sep 8, 2021 9:42:20 PM
* REW Settings:
*  C-weighting compensation: Off
*  Target level: 75.0 dB
* Note: ; 
* Measurement: Odin Sample 2 R
* Smoothing: 1/48 octave
* Frequency Step: 1/24 octave
* Start Frequency: 20.600 Hz
*
* Freq(Hz)	SPL(dB)	Phase(degrees)
20.600000	91.933472	-144.0556
21.200001	91.976456	-145.4934
21.799999	92.018654	-146.8630
22.400000	92.062202	-148.2795
23.000000	92.084953	-149.7134
23.600000	92.084351	-151.0624
24.299999	92.072891	-152.5623
25.000000	92.053932	-154.0793
25.799999	92.023941	-155.7140
26.500000	92.008965	-157.0290
27.200001	91.989639	-158.3772
28.000000	91.933670	-159.8255
29.000000	91.890793	-161.3583
30.000000	91.883377	-163.2152
30.700001	91.839310	-164.5117
31.500000	91.785416	-165.7043
32.500000	91.746925	-167.2188
33.500000	91.685104	-168.7752
34.500000	91.637474	-170.1228
35.500000	91.605377	-171.5657
36.500000	91.548698	-172.9052
37.500000	91.495972	-174.0756
38.700001	91.417419	-175.5956
40.000000	91.335350	-177.2085
41.200001	91.276398	-178.6332
42.500000	91.204781	-179.9617
43.700001	91.136322	178.6793
45.000000	91.052879	177.2706
46.200001	90.989288	176.1215
47.500000	90.921677	174.8203
48.700001	90.854576	173.6987
50.000000	90.783318	172.5896
51.500000	90.687180	171.2836
53.000000	90.595016	170.0341
54.500000	90.512695	168.9219
56.000000	90.428825	167.7874
58.000000	90.307999	166.3686
60.000000	90.162521	164.9124
61.500000	90.069321	163.6800
63.000000	90.027367	162.6793
65.000000	89.916412	161.4984
67.000000	89.804626	160.4726
69.000000	89.639877	159.2510
71.000000	89.554039	158.0073
73.000000	89.424431	157.0290
75.000000	89.321419	156.0020
77.500000	89.174187	154.9255
80.000000	89.053673	153.6906
82.500000	88.831100	152.5359
85.000000	88.714638	151.7410
87.500000	88.640167	150.7456
90.000000	88.548378	149.2872
92.500000	88.318512	148.4878
95.000000	88.237518	147.5693
97.500000	88.093819	146.8512
100.000000	87.978584	146.0814
103.000000	87.871162	145.0717
106.000000	87.706482	144.7792
109.000000	87.561546	143.9082
112.000000	87.252380	142.7636
115.000000	87.229370	141.4499
118.000000	87.202820	141.5381
122.000000	86.956047	140.6259
125.000000	86.895523	139.6603
128.000000	86.693802	139.2599
132.000000	86.576019	138.4732
136.000000	86.392097	137.7756
140.000000	86.251785	137.1771
145.000000	86.066429	136.3099
150.000000	85.885559	135.5420
155.000000	85.716721	134.8392
160.000000	85.529678	134.2552
165.000000	85.372673	133.5861
170.000000	85.218422	133.0659
175.000000	85.061905	132.5384
180.000000	84.898201	132.0673
185.000000	84.762115	131.6126
190.000000	84.623535	131.1932
195.000000	84.484940	130.7583
200.000000	84.344002	130.3655
206.000000	84.194771	129.9318
212.000000	84.044113	129.5477
218.000000	83.900345	129.1595
224.000000	83.759560	128.8200
230.000000	83.625938	128.4820
236.000000	83.498100	128.1940
243.000000	83.347984	127.8843
250.000000	83.211502	127.5784
258.000000	83.059525	127.2417
265.000000	82.928841	126.9926
272.000000	82.805717	126.7553
280.000000	82.671631	126.5128
290.000000	82.514793	126.2531
300.000000	82.376884	125.9950
307.000000	82.264183	125.8407
315.000000	82.155113	125.6667
325.000000	82.020576	125.4768
335.000000	81.909058	125.2801
345.000000	81.789879	125.1919
355.000000	81.677422	125.0863
365.000000	81.576477	124.9918
375.000000	81.478813	124.9077
387.000000	81.370949	124.8325
400.000000	81.264488	124.7859
412.000000	81.168236	124.7923
425.000000	81.079056	124.8158
437.000000	81.001091	124.8468
450.000000	80.920311	124.8705
462.000000	80.852089	124.9366
475.000000	80.785408	125.0457
487.000000	80.734711	125.1547
500.000000	80.681778	125.2802
515.000000	80.624878	125.4865
530.000000	80.571472	125.7183
545.000000	80.533997	125.9838
560.000000	80.497574	126.2749
580.000000	80.459885	126.6929
600.000000	80.430862	127.1700
615.000000	80.417923	127.5652
630.000000	80.411942	128.0158
650.000000	80.407310	128.6400
670.000000	80.416275	129.3348
690.000000	80.417519	130.0800
710.000000	80.420593	131.0084
730.000000	80.425110	132.2814
750.000000	80.577400	134.0000
775.000000	80.752983	134.6983
800.000000	80.863487	135.9701
825.000000	81.011047	137.5092
850.000000	81.204819	139.3718
875.000000	81.544403	141.2312
900.000000	81.933899	142.4104
925.000000	82.324684	143.1504
950.000000	82.703255	143.5669
975.000000	83.062508	143.7734
1000.000000	83.406326	143.8421
1030.000000	83.800278	143.8461
1060.000000	84.181870	143.7795
1090.000000	84.555603	143.6247
1120.000000	84.923096	143.3592
1150.000000	85.281776	142.9914
1180.000000	85.628265	142.5214
1220.000000	86.066193	141.7628
1250.000000	86.376648	141.1252
1280.000000	86.670815	140.4351
1320.000000	87.037720	139.4716
1360.000000	87.379478	138.4802
1400.000000	87.696075	137.5101
1450.000000	88.060707	136.3010
1500.000000	88.396835	135.1456
1550.000000	88.706192	134.0521
1600.000000	88.993645	133.0261
1650.000000	89.264557	132.0677
1700.000000	89.519272	131.1610
1750.000000	89.762863	130.3112
1800.000000	89.995064	129.5009
1850.000000	90.218475	128.7300
1900.000000	90.433456	127.9760
1950.000000	90.640060	127.2310
2000.000000	90.839554	126.4888
2060.000000	91.065857	125.5798
2120.000000	91.277931	124.6515
2180.000000	91.474274	123.6957
2240.000000	91.651085	122.7097
2300.000000	91.807587	121.7073
2360.000000	91.941238	120.7005
2430.000000	92.069565	119.5413
2500.000000	92.167656	118.4213
2580.000000	92.243538	117.2043
2650.000000	92.280731	116.2050
2720.000000	92.290497	115.2904
2800.000000	92.267853	114.3795
2900.000000	92.194427	113.4957
3000.000000	92.082542	112.9933
3070.000000	91.992279	112.8877
3150.000000	91.888344	113.0120
3250.000000	91.773895	113.4949
3350.000000	91.690407	114.2435
3450.000000	91.648476	115.1414
3550.000000	91.648956	116.0313
3650.000000	91.684044	116.7974
3750.000000	91.735336	117.3728
3870.000000	91.795517	117.9147
4000.000000	91.894257	118.6967
4120.000000	92.151604	119.4205
4250.000000	92.703880	118.5856
4370.000000	93.288712	114.3529
4500.000000	93.514084	105.2600
4620.000000	92.895760	94.8076
4750.000000	91.274155	85.5160
4870.000000	89.214355	80.9774
5000.000000	86.673897	80.6038
5150.000000	83.454025	86.0269
5300.000000	79.883301	100.5660
5450.000000	76.894783	132.9900
5600.000000	78.314102	173.9368
5800.000000	83.511864	-163.9596
6000.000000	87.100487	-165.9612
6150.000000	88.435524	-171.8951
6300.000000	88.884598	-177.2302
6500.000000	88.787415	179.7328
6700.000000	88.556610	-179.3843
6900.000000	88.474060	-176.6056
7100.000000	88.589554	-173.6199
7300.000000	88.835533	-171.7930
7500.000000	89.001495	-171.7565
7750.000000	88.834557	-173.2674
8000.000000	88.153152	-174.2403
8250.000000	87.206879	-172.5510
8500.000000	86.368179	-168.3378
8750.000000	85.837509	-163.0587
9000.000000	85.653931	-158.3695
9250.000000	85.710739	-155.7475
9500.000000	85.748810	-156.0191
9750.000000	85.447632	-158.4702
10000.000000	84.634552	-160.8434
10300.000000	83.224068	-159.7466
10600.000000	82.038269	-154.1036
10900.000000	81.354691	-147.3705
11200.000000	80.912041	-141.4859
11500.000000	80.553314	-136.3503
11800.000000	80.147591	-131.5401
12200.000000	79.666176	-124.8649
12500.000000	79.484192	-120.3225
12800.000000	79.447113	-117.3899
13200.000000	79.556282	-117.4980
13600.000000	79.433151	-124.2180
14000.000000	78.565514	-135.5880
14500.000000	76.764023	-150.6152
15000.000000	75.083763	-166.0357
15500.000000	73.728638	175.0432
16000.000000	71.762192	158.8980
16500.000000	70.701134	146.9642
17000.000000	69.543732	133.6494
17500.000000	68.689285	120.3262
18000.000000	68.214287	101.0910
18500.000000	67.550209	70.6597
19000.000000	66.097748	26.0670
19500.000000	62.525669	-40.2142
