* Measurement data measured by REW V5.20
* Source: Headset (USB-C to 3.5mm Headphone Jack Adapter), MICROPHONE (Master Volume), R, volume: 0.260
* Format: 256k Log Swept Sine, 1 sweep at -6.0 dBFS with no timing reference
* Dated: May 11, 2021 11:23:23 AM
* REW Settings:
*  C-weighting compensation: Off
*  Target level: 75.0 dB
* Note: ; 
* Measurement: Orchestra L
* Smoothing: 1/48 octave
* Frequency Step: 1/24 octave
* Start Frequency: 20.000 Hz
*
* Freq(Hz)	SPL(dB)	Phase(degrees)
20.000000	73.604561	46.1923
20.600000	73.661110	44.4427
21.200001	73.677292	42.7787
21.799999	73.691864	41.3199
22.400000	73.726463	39.9025
23.000000	73.758118	38.3733
23.600000	73.761086	36.8700
24.299999	73.755005	35.3863
25.000000	73.777130	33.9919
25.799999	73.795624	32.2475
26.500000	73.790237	30.8412
27.200001	73.804848	29.5085
28.000000	73.817047	27.7283
29.000000	73.754700	25.6152
30.000000	73.715912	23.9367
30.700001	73.722755	22.6697
31.500000	73.718323	21.2343
32.500000	73.717392	19.5421
33.500000	73.710121	17.8475
34.500000	73.696129	16.2682
35.500000	73.682144	14.7363
36.500000	73.664047	13.2606
37.500000	73.643227	11.7975
38.700001	73.606415	10.1082
40.000000	73.568817	8.3573
41.200001	73.531891	6.7822
42.500000	73.491287	5.1050
43.700001	73.444756	3.6389
45.000000	73.402382	2.0958
46.200001	73.349426	0.6832
47.500000	73.293999	-0.7300
48.700001	73.244576	-2.0291
50.000000	73.192482	-3.4146
51.500000	73.118469	-4.9993
53.000000	73.053001	-6.4563
54.500000	72.987083	-7.9173
56.000000	72.937645	-9.4050
58.000000	72.876442	-11.1243
60.000000	72.833649	-12.8224
61.500000	72.782822	-14.1190
63.000000	72.735397	-15.3210
65.000000	72.673035	-16.9092
67.000000	72.607552	-18.4449
69.000000	72.543892	-19.9135
71.000000	72.481491	-21.3486
73.000000	72.413651	-22.7308
75.000000	72.349014	-24.0867
77.500000	72.266617	-25.6841
80.000000	72.185509	-27.2618
82.500000	72.109772	-28.7677
85.000000	72.020050	-30.2588
87.500000	71.944725	-31.6187
90.000000	71.864655	-33.0825
92.500000	71.784554	-34.2811
95.000000	71.706413	-35.5605
97.500000	71.624596	-36.8116
100.000000	71.549767	-38.0159
103.000000	71.482224	-39.3861
106.000000	71.423683	-40.6943
109.000000	71.360222	-42.0721
112.000000	71.296455	-43.3130
115.000000	71.239136	-44.5532
118.000000	71.179451	-45.7280
122.000000	71.102631	-47.2238
125.000000	71.046829	-48.3169
128.000000	70.993500	-49.3836
132.000000	70.924576	-50.7891
136.000000	70.861053	-52.1207
140.000000	70.798592	-53.4186
145.000000	70.722527	-54.9677
150.000000	70.649796	-56.4570
155.000000	70.582611	-57.8997
160.000000	70.521469	-59.2654
165.000000	70.460747	-60.5999
170.000000	70.404442	-61.8734
175.000000	70.352417	-63.0985
180.000000	70.296722	-64.3356
185.000000	70.254913	-65.4509
190.000000	70.211121	-66.5663
195.000000	70.170616	-67.6284
200.000000	70.133156	-68.6749
206.000000	70.088341	-69.8801
212.000000	70.047623	-71.0496
218.000000	70.011139	-72.1592
224.000000	69.976730	-73.2396
230.000000	69.944176	-74.2762
236.000000	69.913849	-75.2723
243.000000	69.881638	-76.3965
250.000000	69.853142	-77.4691
258.000000	69.821304	-78.6366
265.000000	69.796494	-79.6103
272.000000	69.773979	-80.5486
280.000000	69.751060	-81.5697
290.000000	69.722969	-82.7871
300.000000	69.699455	-83.9519
307.000000	69.681892	-84.6847
315.000000	69.666115	-85.5107
325.000000	69.646561	-86.4891
335.000000	69.627823	-87.3944
345.000000	69.612907	-88.2531
355.000000	69.597374	-89.0526
365.000000	69.582909	-89.7919
375.000000	69.567787	-90.4774
387.000000	69.552773	-91.2454
400.000000	69.537155	-92.0018
412.000000	69.522728	-92.6300
425.000000	69.509262	-93.2406
437.000000	69.497108	-93.7366
450.000000	69.483093	-94.2197
462.000000	69.470558	-94.6184
475.000000	69.457367	-94.9803
487.000000	69.444862	-95.2841
500.000000	69.431976	-95.5510
515.000000	69.415009	-95.7964
530.000000	69.397438	-95.9930
545.000000	69.377136	-96.1210
560.000000	69.353027	-96.1917
580.000000	69.315308	-96.1676
600.000000	69.274094	-95.9834
615.000000	69.242508	-95.7318
630.000000	69.214813	-95.3935
650.000000	69.187576	-94.8174
670.000000	69.170784	-94.1499
690.000000	69.161774	-93.4048
710.000000	69.161545	-92.5898
730.000000	69.167076	-91.7028
750.000000	69.180611	-90.7679
775.000000	69.209000	-89.5179
800.000000	69.248932	-88.1824
825.000000	69.302902	-86.7835
850.000000	69.371529	-85.3236
875.000000	69.455765	-83.8345
900.000000	69.555977	-82.3264
925.000000	69.673470	-80.8273
950.000000	69.806320	-79.3506
975.000000	69.951561	-77.9320
1000.000000	70.109299	-76.5753
1030.000000	70.307686	-75.0464
1060.000000	70.513130	-73.6542
1090.000000	70.720436	-72.3921
1120.000000	70.923660	-71.2445
1150.000000	71.118126	-70.2078
1180.000000	71.301643	-69.2615
1220.000000	71.526947	-68.0820
1250.000000	71.679169	-67.2279
1280.000000	71.819580	-66.3925
1320.000000	71.989510	-65.2562
1360.000000	72.143219	-64.0764
1400.000000	72.285400	-62.8483
1450.000000	72.453979	-61.2225
1500.000000	72.616905	-59.5258
1550.000000	72.781517	-57.7616
1600.000000	72.947906	-55.9579
1650.000000	73.119446	-54.1400
1700.000000	73.298836	-52.3237
1750.000000	73.484612	-50.5479
1800.000000	73.676056	-48.8276
1850.000000	73.872253	-47.1830
1900.000000	74.071884	-45.6284
1950.000000	74.271286	-44.1868
2000.000000	74.469215	-42.8593
2060.000000	74.697960	-41.4326
2120.000000	74.911293	-40.1932
2180.000000	75.103394	-39.1240
2240.000000	75.269836	-38.2075
2300.000000	75.403786	-37.4139
2360.000000	75.501450	-36.6893
2430.000000	75.569221	-35.8698
2500.000000	75.590218	-35.0146
2580.000000	75.565193	-33.8939
2650.000000	75.511307	-32.7307
2720.000000	75.439514	-31.3969
2800.000000	75.351166	-29.6757
2900.000000	75.244743	-27.3507
3000.000000	75.142563	-24.9900
3070.000000	75.064018	-23.3448
3150.000000	74.961487	-21.4503
3250.000000	74.814224	-18.9659
3350.000000	74.662582	-16.2803
3450.000000	74.531052	-13.4265
3550.000000	74.433937	-10.5118
3650.000000	74.377914	-7.6500
3750.000000	74.365227	-4.9301
3870.000000	74.417953	-1.9734
4000.000000	74.578896	0.5753
4120.000000	74.824806	1.8905
4250.000000	75.150528	1.5427
4370.000000	75.394135	-0.7936
4500.000000	75.435516	-5.2337
4620.000000	75.184296	-10.1422
4750.000000	74.655190	-15.1051
4870.000000	74.066925	-18.7831
5000.000000	73.473801	-21.7905
5150.000000	72.985085	-24.4336
5300.000000	72.791710	-26.7886
5450.000000	72.918549	-29.3300
5600.000000	73.347153	-32.4357
5800.000000	74.230103	-37.8458
6000.000000	75.306610	-45.3170
6150.000000	75.989883	-52.4194
6300.000000	76.259605	-59.9175
6500.000000	76.148254	-67.4321
6700.000000	75.776138	-71.6763
6900.000000	75.347244	-73.0693
7100.000000	74.961418	-72.4414
7300.000000	74.640968	-70.7665
7500.000000	74.295937	-68.5983
7750.000000	73.768463	-65.0155
8000.000000	73.123726	-60.2500
8250.000000	72.398132	-54.0163
8500.000000	71.675865	-46.1551
8750.000000	71.053757	-37.0026
9000.000000	70.575333	-27.1406
9250.000000	70.234909	-17.1064
9500.000000	70.004440	-7.2462
9750.000000	69.852264	2.2321
10000.000000	69.747284	11.1794
10300.000000	69.648247	21.1883
10600.000000	69.569054	30.2037
10900.000000	69.443146	37.6258
11200.000000	69.084946	43.2156
11500.000000	68.210052	48.2265
11800.000000	66.777634	56.8372
12200.000000	65.795158	78.8230
12500.000000	66.879852	91.0028
12800.000000	68.015045	92.7747
13200.000000	68.422813	86.0894
13600.000000	67.349159	75.4973
14000.000000	64.862450	68.0885
14500.000000	61.219406	69.1596
15000.000000	58.018143	76.7040
15500.000000	55.708496	88.0018
16000.000000	54.179661	96.8697
16500.000000	53.116119	102.5133
17000.000000	52.407707	102.1126
17500.000000	51.439930	92.7071
18000.000000	49.858521	86.0451
18500.000000	51.923107	68.0533
19000.000000	53.816589	14.0357
19500.000000	53.113171	-65.3402
