* Measurement data measured by REW V5.20 Beta 19
* Source: Microphone (2- USB Sound Device        ), MICROPHONE (Master Volume), L, volume: 0.557
* Format: 1M Log Swept Sine, 1 sweep at 0.0 dBFS  With no timing reference
* Dated: Aug 28, 2019 8:47:33 PM
* REW Settings:
*  C-weighting compensation: Off
*  Target level: 75.0 dB
* Note: ; 
* Measurement: Peacock P1 - L
* Smoothing: 1/48 octave
* Frequency Step: 1/24 octave
* Start Frequency: 20.600 Hz
*
* Freq(Hz)	SPL(dB)	Phase(degrees)
20.600000	64.558022	-152.2936
21.200001	64.532425	-153.5299
21.799999	64.510361	-154.8410
22.400000	64.493484	-156.2783
23.000000	64.483963	-157.7916
23.600000	64.489082	-159.3200
24.299999	64.517456	-161.0869
25.000000	64.564346	-162.8011
25.799999	64.628410	-164.6367
26.500000	64.685959	-166.1060
27.200001	64.739960	-167.4688
28.000000	64.789749	-168.9433
29.000000	64.832626	-170.7124
30.000000	64.858757	-172.5118
30.700001	64.868874	-173.7765
31.500000	64.887360	-175.2312
32.500000	64.911613	-177.1128
33.500000	64.943100	-178.8450
34.500000	64.989326	179.3949
35.500000	65.003441	177.8298
36.500000	65.051361	176.4204
37.500000	65.060364	174.7366
38.700001	65.037155	173.1732
40.000000	65.047333	171.3235
41.200001	65.065331	169.9012
42.500000	65.161354	168.1009
43.700001	65.217422	166.2318
45.000000	65.219109	164.3569
46.200001	65.199158	162.9207
47.500000	65.169273	161.4297
48.700001	65.137093	160.0197
50.000000	65.089516	158.4752
51.500000	65.049217	156.7718
53.000000	65.020172	155.0883
54.500000	64.991829	153.4724
56.000000	64.958153	151.9719
58.000000	64.909966	150.0298
60.000000	64.869049	148.1281
61.500000	64.841805	146.7770
63.000000	64.814217	145.3197
65.000000	64.759888	143.6313
67.000000	64.736893	141.9139
69.000000	64.705795	140.1190
71.000000	64.660400	138.4816
73.000000	64.611000	136.9031
75.000000	64.544441	135.4525
77.500000	64.472122	133.7175
80.000000	64.418961	132.0096
82.500000	64.377884	130.3521
85.000000	64.363243	128.7268
87.500000	64.352295	126.9655
90.000000	64.328842	125.1138
92.500000	64.291748	123.1163
95.000000	64.231155	121.2514
97.500000	64.171516	119.3943
100.000000	64.099518	117.6442
103.000000	64.028641	115.5289
106.000000	63.944199	113.5353
109.000000	63.854820	111.6749
112.000000	63.774345	109.8637
115.000000	63.685596	108.0302
118.000000	63.593204	106.3132
122.000000	63.455227	104.1838
125.000000	63.352150	102.6230
128.000000	63.251778	101.0472
132.000000	63.119484	99.0399
136.000000	62.991745	97.1575
140.000000	62.864479	95.2943
145.000000	62.695930	93.0775
150.000000	62.523102	90.9998
155.000000	62.372208	88.9638
160.000000	62.234158	87.0465
165.000000	62.095413	85.1544
170.000000	61.960552	83.4844
175.000000	61.820923	81.7162
180.000000	61.694107	80.1685
185.000000	61.551022	78.5447
190.000000	61.413002	77.1048
195.000000	61.230637	75.8606
200.000000	61.069279	74.9382
206.000000	60.936821	74.5728
212.000000	60.991405	73.7377
218.000000	60.977219	71.9244
224.000000	60.909657	69.9146
230.000000	60.788342	68.0856
236.000000	60.649246	66.3797
243.000000	60.484436	64.6613
250.000000	60.322109	63.0815
258.000000	60.147636	61.4516
265.000000	60.004852	60.1090
272.000000	59.868259	58.8384
280.000000	59.722374	57.4754
290.000000	59.546143	55.8394
300.000000	59.376888	54.3605
307.000000	59.267551	53.3827
315.000000	59.151176	52.3006
325.000000	59.015984	51.0471
335.000000	58.901672	49.8599
345.000000	58.796268	48.6675
355.000000	58.695885	47.5014
365.000000	58.608452	46.3916
375.000000	58.528759	45.2487
387.000000	58.442013	43.9401
400.000000	58.361214	42.5438
412.000000	58.298664	41.2299
425.000000	58.237045	39.7980
437.000000	58.186905	38.4573
450.000000	58.134510	36.9815
462.000000	58.090446	35.6216
475.000000	58.047634	34.0935
487.000000	58.002110	32.6956
500.000000	57.953419	31.1569
515.000000	57.890930	29.4051
530.000000	57.827538	27.6420
545.000000	57.756508	25.9304
560.000000	57.682030	24.2534
580.000000	57.577263	22.0988
600.000000	57.465187	20.0398
615.000000	57.377388	18.5837
630.000000	57.289055	17.1838
650.000000	57.166321	15.4556
670.000000	57.055550	13.8193
690.000000	56.951340	12.3586
710.000000	56.841644	11.0112
730.000000	56.738235	9.7808
750.000000	56.640980	8.6738
775.000000	56.530285	7.4504
800.000000	56.432766	6.3988
825.000000	56.353920	5.5054
850.000000	56.292126	4.7778
875.000000	56.252083	4.1868
900.000000	56.232204	3.7361
925.000000	56.241917	3.3721
950.000000	56.276817	3.0986
975.000000	56.342697	2.8539
1000.000000	56.442364	2.6322
1030.000000	56.600685	2.1958
1060.000000	56.779442	1.4104
1090.000000	56.849300	0.3485
1120.000000	56.885296	0.8539
1150.000000	57.115318	0.8752
1180.000000	57.376785	0.6794
1220.000000	57.775188	-0.1467
1250.000000	58.061081	-1.3209
1280.000000	58.332386	-2.5305
1320.000000	58.647739	-4.3702
1360.000000	58.908314	-6.1721
1400.000000	59.129272	-7.8609
1450.000000	59.373352	-9.7694
1500.000000	59.596943	-11.4982
1550.000000	59.814735	-12.9470
1600.000000	60.028797	-14.1907
1650.000000	60.253132	-15.2441
1700.000000	60.489883	-16.1111
1750.000000	60.737320	-16.8051
1800.000000	61.008343	-17.4606
1850.000000	61.296333	-18.1438
1900.000000	61.578499	-18.7750
1950.000000	61.874832	-19.3822
2000.000000	62.178623	-19.9859
2060.000000	62.548878	-20.7635
2120.000000	62.928699	-21.6391
2180.000000	63.308395	-22.6549
2240.000000	63.679623	-23.8436
2300.000000	64.050064	-25.2509
2360.000000	64.397301	-26.9304
2430.000000	64.773399	-29.2945
2500.000000	65.086937	-32.0956
2580.000000	65.389618	-35.7870
2650.000000	65.577751	-39.2631
2720.000000	65.705063	-42.7468
2800.000000	65.763985	-46.5012
2900.000000	65.707558	-50.3639
3000.000000	65.520790	-52.8380
3070.000000	65.363770	-53.5874
3150.000000	65.230354	-53.5453
3250.000000	65.112854	-52.6497
3350.000000	65.029388	-51.1486
3450.000000	64.995064	-48.8531
3550.000000	65.047890	-46.0446
3650.000000	65.200058	-42.9893
3750.000000	65.428391	-39.9352
3870.000000	65.821236	-36.8685
4000.000000	66.322708	-35.2396
4120.000000	66.704201	-36.1932
4250.000000	66.697632	-39.7369
4370.000000	66.075050	-43.0760
4500.000000	64.703079	-42.9534
4620.000000	63.210815	-37.2433
4750.000000	61.920082	-25.5473
4870.000000	61.373455	-11.7961
5000.000000	61.592945	2.8355
5150.000000	62.440487	14.8823
5300.000000	62.998016	20.2848
5450.000000	62.603508	23.5526
5600.000000	61.518269	30.1057
5800.000000	59.848186	45.7304
6000.000000	58.416821	66.6602
6150.000000	57.557327	84.4750
6300.000000	56.890137	103.4753
6500.000000	56.258362	130.1022
6700.000000	55.925156	157.7584
6900.000000	55.854149	-173.9038
7100.000000	56.052849	-145.1566
7300.000000	56.537296	-116.1759
7500.000000	57.351582	-87.1744
7750.000000	59.031723	-52.4972
8000.000000	61.491932	-21.7317
8250.000000	64.607109	-7.4750
8500.000000	64.377884	-16.9561
8750.000000	60.099121	-6.6396
9000.000000	56.152416	24.7895
9250.000000	53.263489	63.8796
9500.000000	51.137836	106.3046
9750.000000	49.538948	150.6248
10000.000000	48.340763	-163.7491
10300.000000	47.317955	-107.6778
10600.000000	46.674286	-50.2984
10900.000000	46.428764	8.2662
11200.000000	46.551147	67.8666
11500.000000	47.149624	128.2427
11800.000000	48.347630	-171.2750
12200.000000	51.144062	-93.9079
12500.000000	53.902790	-43.9221
12800.000000	55.973747	-2.5949
13200.000000	57.645142	49.2913
13600.000000	57.602734	96.2791
14000.000000	55.776920	151.3352
14500.000000	53.083275	-124.9775
15000.000000	51.120201	-30.5852
15500.000000	50.170181	69.2317
16000.000000	50.303028	171.8062
16500.000000	51.895370	-86.2979
17000.000000	55.064514	6.8278
17500.000000	58.143513	75.6248
18000.000000	56.397182	134.7380
18500.000000	53.341961	-142.4271
19000.000000	52.380768	-56.5164
19500.000000	52.261112	5.0740
