* Measurement data measured by REW V5.20
* Source: Headset (USB-C to 3.5mm Headphone Jack Adapter), MICROPHONE (Master Volume), R, volume: 0.260
* Format: 512k Log Swept Sine, 1 sweep at 0.0 dBFS with no timing reference
* Dated: Feb 1, 2022 5:41:21 PM
* REW Settings:
*  C-weighting compensation: Off
*  Target level: 75.0 dB
* Note: ; 
* Measurement: Phonix R
* Smoothing: 1/48 octave
* Frequency Step: 1/24 octave
* Start Frequency: 20.600 Hz
*
* Freq(Hz)	SPL(dB)	Phase(degrees)
20.600000	79.849655	71.7223
21.200001	79.992592	70.3058
21.799999	80.069611	68.7358
22.400000	80.106049	66.9828
23.000000	80.205574	64.9887
23.600000	80.406677	63.2497
24.299999	80.626129	62.0952
25.000000	80.722160	61.8677
25.799999	80.642525	61.7256
26.500000	80.583542	59.6691
27.200001	80.813309	57.5114
28.000000	80.913055	57.6474
29.000000	80.858757	55.4181
30.000000	81.069153	54.5717
30.700001	80.983231	53.4374
31.500000	81.127419	52.1182
32.500000	81.141327	51.2592
33.500000	81.249634	49.9502
34.500000	81.284050	48.8781
35.500000	81.344330	47.8127
36.500000	81.408798	46.7481
37.500000	81.432266	45.9449
38.700001	81.542671	44.4537
40.000000	81.619209	43.2504
41.200001	81.645233	42.2766
42.500000	81.718307	41.0215
43.700001	81.748398	39.9520
45.000000	81.798523	39.0570
46.200001	81.843765	38.0247
47.500000	81.904533	37.0776
48.700001	81.961273	36.3182
50.000000	82.020554	35.2230
51.500000	82.062073	34.0234
53.000000	82.105957	33.1732
54.500000	82.141624	32.0679
56.000000	82.188515	31.2081
58.000000	82.243362	29.9890
60.000000	82.330002	28.6555
61.500000	82.333694	27.9082
63.000000	82.370186	27.1136
65.000000	82.423065	26.0055
67.000000	82.452393	24.9833
69.000000	82.499710	23.9313
71.000000	82.520821	22.9724
73.000000	82.554306	22.0277
75.000000	82.581161	21.0340
77.500000	82.629227	19.8827
80.000000	82.642258	18.8430
82.500000	82.669373	17.7763
85.000000	82.676018	16.8351
87.500000	82.670044	16.2196
90.000000	82.706665	14.8678
92.500000	82.725510	13.8859
95.000000	82.726753	13.0119
97.500000	82.732719	12.1198
100.000000	82.736710	11.2971
103.000000	82.741814	10.3054
106.000000	82.743370	9.3722
109.000000	82.753296	8.5012
112.000000	82.746429	7.5426
115.000000	82.742447	6.6822
118.000000	82.739029	5.8684
122.000000	82.729622	4.7863
125.000000	82.720764	4.0035
128.000000	82.711700	3.2353
132.000000	82.691277	2.2724
136.000000	82.671448	1.3366
140.000000	82.644638	0.4121
145.000000	82.610672	-0.6556
150.000000	82.574348	-1.6766
155.000000	82.533653	-2.6718
160.000000	82.488480	-3.6117
165.000000	82.442368	-4.4919
170.000000	82.391228	-5.3695
175.000000	82.335182	-6.2093
180.000000	82.281967	-6.9519
185.000000	82.228043	-7.7213
190.000000	82.171211	-8.4539
195.000000	82.109055	-9.1431
200.000000	82.049187	-9.8120
206.000000	81.975319	-10.5619
212.000000	81.899544	-11.2847
218.000000	81.823738	-11.9698
224.000000	81.744843	-12.6362
230.000000	81.664871	-13.2535
236.000000	81.586075	-13.8292
243.000000	81.491898	-14.4823
250.000000	81.397331	-15.0800
258.000000	81.286652	-15.7334
265.000000	81.189316	-16.2887
272.000000	81.095810	-16.7699
280.000000	80.987885	-17.2902
290.000000	80.847862	-17.9025
300.000000	80.709709	-18.4262
307.000000	80.615242	-18.7960
315.000000	80.503494	-19.1652
325.000000	80.368561	-19.5736
335.000000	80.237350	-19.9501
345.000000	80.101410	-20.2796
355.000000	79.966789	-20.5528
365.000000	79.836731	-20.7650
375.000000	79.707016	-20.9737
387.000000	79.552856	-21.1618
400.000000	79.388123	-21.3058
412.000000	79.242165	-21.3854
425.000000	79.082848	-21.4084
437.000000	78.942993	-21.3925
450.000000	78.791267	-21.3285
462.000000	78.657516	-21.2278
475.000000	78.514244	-21.0819
487.000000	78.385674	-20.9036
500.000000	78.253738	-20.6553
515.000000	78.101921	-20.3360
530.000000	77.958260	-19.9622
545.000000	77.819725	-19.5468
560.000000	77.686836	-19.1000
580.000000	77.519829	-18.4191
600.000000	77.362000	-17.6992
615.000000	77.251884	-17.0853
630.000000	77.147392	-16.4698
650.000000	77.021240	-15.5651
670.000000	76.903008	-14.6246
690.000000	76.799553	-13.6419
710.000000	76.707619	-12.6237
730.000000	76.628403	-11.5395
750.000000	76.560837	-10.4240
775.000000	76.499344	-9.0061
800.000000	76.459595	-7.5470
825.000000	76.441666	-6.0481
850.000000	76.446808	-4.5681
875.000000	76.475716	-3.0923
900.000000	76.531448	-1.6418
925.000000	76.608871	-0.2550
950.000000	76.708305	1.0709
975.000000	76.827850	2.3007
1000.000000	76.965431	3.4265
1030.000000	77.147339	4.6020
1060.000000	77.342918	5.5844
1090.000000	77.547356	6.3934
1120.000000	77.750107	6.9999
1150.000000	77.952087	7.4821
1180.000000	78.149864	7.7957
1220.000000	78.393402	8.0472
1250.000000	78.565178	8.1646
1280.000000	78.725281	8.2130
1320.000000	78.926743	8.2258
1360.000000	79.111244	8.2098
1400.000000	79.284050	8.1783
1450.000000	79.488823	8.1486
1500.000000	79.680977	8.1220
1550.000000	79.868927	8.1171
1600.000000	80.051819	8.1340
1650.000000	80.231079	8.1911
1700.000000	80.407433	8.2733
1750.000000	80.589211	8.4080
1800.000000	80.772720	8.5830
1850.000000	80.962486	8.7935
1900.000000	81.164452	9.0482
1950.000000	81.378593	9.3381
2000.000000	81.611931	9.6198
2060.000000	81.919823	9.9282
2120.000000	82.259071	10.1192
2180.000000	82.625671	10.1205
2240.000000	83.014145	9.8377
2300.000000	83.405350	9.2438
2360.000000	83.787048	8.3137
2430.000000	84.199226	6.8811
2500.000000	84.562515	5.1797
2580.000000	84.916405	3.0148
2650.000000	85.162621	1.0122
2720.000000	85.344330	-1.0177
2800.000000	85.472168	-3.1598
2900.000000	85.536850	-5.3826
3000.000000	85.526421	-6.8239
3070.000000	85.517570	-7.1989
3150.000000	85.566917	-7.0929
3250.000000	85.768211	-6.6864
3350.000000	86.116577	-6.6284
3450.000000	86.563934	-7.4437
3550.000000	87.032028	-9.5488
3650.000000	87.392395	-13.0492
3750.000000	87.508644	-17.3704
3870.000000	87.290054	-21.9598
4000.000000	86.846390	-24.6809
4120.000000	86.496132	-25.4633
4250.000000	86.255661	-25.6409
4370.000000	86.104332	-25.7811
4500.000000	85.961235	-25.9337
4620.000000	85.849594	-26.0137
4750.000000	85.751022	-26.2326
4870.000000	85.647713	-26.6667
5000.000000	85.482475	-27.2868
5150.000000	85.200951	-27.9079
5300.000000	84.828583	-28.0981
5450.000000	84.398537	-27.6451
5600.000000	83.951180	-26.4712
5800.000000	83.389526	-23.8831
6000.000000	82.928665	-20.3899
6150.000000	82.668198	-17.6147
6300.000000	82.472504	-14.8736
6500.000000	82.204117	-11.1617
6700.000000	82.073402	-7.1749
6900.000000	82.035667	-3.7759
7100.000000	82.023895	-0.8479
7300.000000	82.016502	1.4417
7500.000000	81.951012	3.4564
7750.000000	81.824463	6.0481
8000.000000	81.757568	9.0802
8250.000000	81.723061	10.6972
8500.000000	81.563217	11.9918
8750.000000	81.170334	13.5299
9000.000000	80.740677	17.4016
9250.000000	80.745712	22.0911
9500.000000	80.948242	24.0095
9750.000000	80.876312	24.5317
10000.000000	80.666664	25.8119
10300.000000	80.541740	27.7648
10600.000000	80.579720	28.2481
10900.000000	80.530632	26.0257
11200.000000	80.065208	21.9527
11500.000000	79.116432	18.6545
11800.000000	78.002670	17.8449
12200.000000	76.858398	19.1997
12500.000000	76.360519	19.5578
12800.000000	76.009056	17.7126
13200.000000	75.278725	12.6037
13600.000000	74.197372	8.0621
14000.000000	73.215675	5.5733
14500.000000	72.635101	2.8249
15000.000000	72.740646	-4.3697
15500.000000	72.908203	-19.1938
16000.000000	72.428185	-40.8005
16500.000000	71.506348	-64.2417
17000.000000	71.477798	-96.2185
17500.000000	69.047859	-160.5712
18000.000000	62.080048	-178.2379
18500.000000	63.416344	149.1815
19000.000000	64.357475	81.8278
19500.000000	63.434685	-4.0277
