* Measurement data measured by REW V5.20.13
* Source: Headset (2- USB-C to 3.5mm Headphone Jack Adapter), MICROPHONE (Master Volume), R, volume: 0.250. Timing signal peak level -63.5 dBFS, measurement signal peak level -24.8 dBFS
* Format: 512k Log Swept Sine, 1 sweep at -6.0 dBFS using an acoustic timing reference
* Dated: Jun 24, 2023 5:21:43 PM
* REW Settings:
*  C-weighting compensation: Off
*  Target level: 75.0 dB
* Note: ; Delay -0.0400 ms (-14 mm, -0.54 in) using estimated IR delay relative to Acoustic reference played from  L with no timing offset Clock adjustment: 0.3 ppm
* Measurement: Quartet On Off R
* Smoothing: 1/48 octave
* Frequency Step: 1/24 octave
* Start Frequency: 20.600 Hz
*
* Freq(Hz)	SPL(dB)	Phase(degrees)
20.600000	92.157	-112.8467
21.200001	92.285	-114.6308
21.799999	92.397	-116.3096
22.400000	92.483	-117.9328
23.000000	92.546	-119.5680
23.600000	92.610	-121.1832
24.299999	92.683	-122.9311
25.000000	92.733	-124.5651
25.799999	92.775	-126.4497
26.500000	92.822	-128.0448
27.200001	92.860	-129.5010
28.000000	92.883	-131.1087
29.000000	92.918	-133.1391
30.000000	92.942	-135.0594
30.700001	92.951	-136.3307
31.500000	92.969	-137.7423
32.500000	92.989	-139.4398
33.500000	92.998	-141.0491
34.500000	93.008	-142.6252
35.500000	93.018	-144.1282
36.500000	93.020	-145.5760
37.500000	93.022	-146.9559
38.700001	93.025	-148.5641
40.000000	93.015	-150.2283
41.200001	93.011	-151.7237
42.500000	93.004	-153.2130
43.700001	92.998	-154.6142
45.000000	92.980	-156.0334
46.200001	92.969	-157.2675
47.500000	92.952	-158.5832
48.700001	92.932	-159.7290
50.000000	92.913	-160.9601
51.500000	92.881	-162.2869
53.000000	92.861	-163.6051
54.500000	92.832	-164.8615
56.000000	92.804	-166.0192
58.000000	92.763	-167.5576
60.000000	92.708	-169.2222
61.500000	92.692	-170.1129
63.000000	92.657	-171.1298
65.000000	92.609	-172.4127
67.000000	92.558	-173.7113
69.000000	92.509	-174.8550
71.000000	92.462	-176.0561
73.000000	92.403	-177.1198
75.000000	92.348	-178.1947
77.500000	92.280	-179.4603
80.000000	92.204	179.3179
82.500000	92.129	178.1473
85.000000	92.053	177.0329
87.500000	91.976	175.9649
90.000000	91.901	174.9457
92.500000	91.822	173.9509
95.000000	91.742	173.0182
97.500000	91.666	172.1099
100.000000	91.589	171.2254
103.000000	91.497	170.2296
106.000000	91.407	169.2700
109.000000	91.314	168.3488
112.000000	91.224	167.4831
115.000000	91.133	166.6379
118.000000	91.043	165.8496
122.000000	90.921	164.8302
125.000000	90.829	164.1113
128.000000	90.737	163.4235
132.000000	90.615	162.5542
136.000000	90.492	161.7395
140.000000	90.367	160.9622
145.000000	90.213	160.0608
150.000000	90.057	159.2250
155.000000	89.903	158.4516
160.000000	89.748	157.7401
165.000000	89.592	157.0849
170.000000	89.438	156.4875
175.000000	89.285	155.9320
180.000000	89.126	155.3991
185.000000	88.979	154.9748
190.000000	88.829	154.5693
195.000000	88.678	154.2028
200.000000	88.530	153.8771
206.000000	88.354	153.5392
212.000000	88.179	153.2668
218.000000	88.007	153.0392
224.000000	87.838	152.8664
230.000000	87.671	152.7475
236.000000	87.508	152.6662
243.000000	87.320	152.6373
250.000000	87.139	152.6709
258.000000	86.936	152.7824
265.000000	86.765	152.9361
272.000000	86.600	153.1405
280.000000	86.419	153.4320
290.000000	86.204	153.8802
300.000000	86.011	154.4566
307.000000	85.874	154.8089
315.000000	85.734	155.3058
325.000000	85.572	155.9682
335.000000	85.426	156.6707
345.000000	85.294	157.3851
355.000000	85.177	158.1081
365.000000	85.075	158.8232
375.000000	84.983	159.5212
387.000000	84.890	160.3355
400.000000	84.803	161.1698
412.000000	84.734	161.8906
425.000000	84.669	162.6183
437.000000	84.616	163.2354
450.000000	84.564	163.8527
462.000000	84.520	164.3831
475.000000	84.472	164.9149
487.000000	84.430	165.3787
500.000000	84.385	165.8544
515.000000	84.333	166.3785
530.000000	84.281	166.8821
545.000000	84.228	167.3703
560.000000	84.176	167.8769
580.000000	84.108	168.5364
600.000000	84.040	169.2159
615.000000	83.992	169.7293
630.000000	83.946	170.2602
650.000000	83.886	170.9736
670.000000	83.829	171.7184
690.000000	83.779	172.4813
710.000000	83.727	173.2661
730.000000	83.673	174.2277
750.000000	83.687	175.2712
775.000000	83.696	176.1008
800.000000	83.687	177.0076
825.000000	83.691	177.9463
850.000000	83.706	178.8644
875.000000	83.732	179.7336
900.000000	83.758	-179.4753
925.000000	83.781	-178.7265
950.000000	83.784	-177.9830
975.000000	83.764	-177.0548
1000.000000	83.743	-175.6641
1030.000000	83.829	-173.3885
1060.000000	84.093	-171.3748
1090.000000	84.433	-170.3309
1120.000000	84.752	-170.0779
1150.000000	85.025	-170.2976
1180.000000	85.251	-170.7838
1220.000000	85.487	-171.6750
1250.000000	85.620	-172.4457
1280.000000	85.719	-173.2506
1320.000000	85.802	-174.3190
1360.000000	85.833	-175.3095
1400.000000	85.821	-176.1552
1450.000000	85.757	-176.9083
1500.000000	85.661	-177.2551
1550.000000	85.554	-177.1680
1600.000000	85.459	-176.6624
1650.000000	85.394	-175.7890
1700.000000	85.376	-174.6286
1750.000000	85.415	-173.3151
1800.000000	85.517	-171.9342
1850.000000	85.680	-170.6144
1900.000000	85.898	-169.4778
1950.000000	86.165	-168.6188
2000.000000	86.464	-168.0987
2060.000000	86.848	-167.9925
2120.000000	87.228	-168.4789
2180.000000	87.575	-169.5416
2240.000000	87.862	-171.0702
2300.000000	88.066	-172.9096
2360.000000	88.183	-174.8583
2430.000000	88.210	-177.0317
2500.000000	88.146	-178.8800
2580.000000	87.994	179.5572
2650.000000	87.822	178.7106
2720.000000	87.642	178.3169
2800.000000	87.455	178.3424
2900.000000	87.275	178.8692
3000.000000	87.172	179.7090
3070.000000	87.149	-179.6475
3150.000000	87.168	-178.9883
3250.000000	87.237	-178.4035
3350.000000	87.332	-178.1758
3450.000000	87.424	-178.2993
3550.000000	87.498	-178.7386
3650.000000	87.540	-179.5124
3750.000000	87.520	179.3216
3870.000000	87.345	177.5691
4000.000000	86.906	175.9156
4120.000000	86.269	175.5180
4250.000000	85.420	177.4534
4370.000000	84.706	-177.6934
4500.000000	84.382	-169.3914
4620.000000	84.791	-161.2464
4750.000000	85.876	-155.7823
4870.000000	86.968	-155.5379
5000.000000	87.756	-159.1918
5150.000000	87.946	-164.9092
5300.000000	87.512	-169.3513
5450.000000	86.797	-170.4078
5600.000000	86.087	-169.3759
5800.000000	85.236	-165.4009
6000.000000	84.591	-159.4306
6150.000000	84.259	-154.0691
6300.000000	84.066	-148.2137
6500.000000	84.034	-139.9329
6700.000000	84.272	-131.4860
6900.000000	84.803	-123.2512
7100.000000	85.650	-115.9143
7300.000000	86.791	-109.8536
7500.000000	88.320	-106.5005
7750.000000	90.405	-108.9641
8000.000000	91.861	-119.7309
8250.000000	91.964	-133.2261
8500.000000	91.218	-143.4807
8750.000000	90.212	-151.5485
9000.000000	88.867	-158.9697
9250.000000	87.068	-164.4373
9500.000000	85.057	-167.1609
9750.000000	82.868	-170.5799
10000.000000	78.747	-175.0651
10300.000000	73.581	-114.5644
10600.000000	78.185	-93.9751
10900.000000	79.892	-91.1059
11200.000000	80.976	-89.3086
11500.000000	81.785	-89.8404
11800.000000	82.183	-92.5872
12200.000000	81.965	-96.6091
12500.000000	81.523	-97.8634
12800.000000	81.204	-97.7609
13200.000000	81.402	-98.0726
13600.000000	82.535	-104.9782
14000.000000	83.458	-127.0105
14500.000000	81.425	-163.1969
15000.000000	77.231	174.3925
15500.000000	73.531	163.5524
16000.000000	70.411	156.1327
16500.000000	67.569	152.7996
17000.000000	65.628	151.7768
17500.000000	64.663	146.7210
18000.000000	64.284	134.3835
18500.000000	64.637	115.1082
19000.000000	68.489	78.6751
19500.000000	71.221	-18.3127
