* Measurement data measured by REW V5.20.13
* Source: Headset (2- USB-C to 3.5mm Headphone Jack Adapter), MICROPHONE (Master Volume), R, volume: 0.250. Timing signal peak level -66.8 dBFS, measurement signal peak level -27.1 dBFS
* Format: 512k Log Swept Sine, 1 sweep at -6.0 dBFS using an acoustic timing reference
* Dated: Jun 24, 2023 5:19:42 PM
* REW Settings:
*  C-weighting compensation: Off
*  Target level: 75.0 dB
* Note: ; Delay -0.0374 ms (-13 mm, -0.5 in) using estimated IR delay relative to Acoustic reference played from  L with no timing offset Clock adjustment: 0.4 ppm
* Measurement: Quartet off R
* Smoothing: 1/48 octave
* Frequency Step: 1/24 octave
* Start Frequency: 20.600 Hz
*
* Freq(Hz)	SPL(dB)	Phase(degrees)
20.600000	92.105	-114.3209
21.200001	92.209	-116.0359
21.799999	92.309	-117.6545
22.400000	92.401	-119.2502
23.000000	92.474	-120.7944
23.600000	92.534	-122.2411
24.299999	92.596	-123.9055
25.000000	92.645	-125.6082
25.799999	92.685	-127.3822
26.500000	92.715	-128.7993
27.200001	92.742	-130.3320
28.000000	92.768	-132.0775
29.000000	92.794	-133.8703
30.000000	92.819	-135.7971
30.700001	92.839	-137.1736
31.500000	92.852	-138.5187
32.500000	92.854	-140.1564
33.500000	92.867	-141.7837
34.500000	92.877	-143.2673
35.500000	92.880	-144.7795
36.500000	92.880	-146.2216
37.500000	92.874	-147.5691
38.700001	92.886	-149.1837
40.000000	92.871	-150.8796
41.200001	92.866	-152.3127
42.500000	92.864	-153.7555
43.700001	92.851	-155.0466
45.000000	92.831	-156.5197
46.200001	92.818	-157.7465
47.500000	92.796	-159.0335
48.700001	92.777	-160.2055
50.000000	92.758	-161.3936
51.500000	92.729	-162.7998
53.000000	92.709	-163.9771
54.500000	92.670	-165.2587
56.000000	92.642	-166.4020
58.000000	92.610	-167.9796
60.000000	92.516	-169.4735
61.500000	92.538	-170.4296
63.000000	92.496	-171.4965
65.000000	92.454	-172.7724
67.000000	92.405	-174.0233
69.000000	92.351	-175.1900
71.000000	92.293	-176.3443
73.000000	92.243	-177.4261
75.000000	92.189	-178.5057
77.500000	92.119	-179.7962
80.000000	92.041	178.9938
82.500000	91.968	177.8447
85.000000	91.897	176.7743
87.500000	91.816	175.6422
90.000000	91.736	174.6578
92.500000	91.660	173.6508
95.000000	91.583	172.7403
97.500000	91.509	171.8166
100.000000	91.428	170.9252
103.000000	91.330	169.9347
106.000000	91.241	168.9622
109.000000	91.154	168.0427
112.000000	91.065	167.1420
115.000000	90.977	166.3527
118.000000	90.888	165.5421
122.000000	90.765	164.5139
125.000000	90.673	163.7969
128.000000	90.580	163.1108
132.000000	90.460	162.2272
136.000000	90.339	161.3922
140.000000	90.214	160.6252
145.000000	90.062	159.6906
150.000000	89.906	158.8594
155.000000	89.750	158.0761
160.000000	89.599	157.3496
165.000000	89.443	156.6734
170.000000	89.291	156.0669
175.000000	89.137	155.4916
180.000000	88.994	155.0667
185.000000	88.836	154.5133
190.000000	88.684	154.0817
195.000000	88.533	153.7076
200.000000	88.387	153.3617
206.000000	88.210	153.0049
212.000000	88.038	152.7062
218.000000	87.867	152.4762
224.000000	87.697	152.2751
230.000000	87.530	152.1299
236.000000	87.368	152.0499
243.000000	87.182	151.9935
250.000000	87.002	152.0083
258.000000	86.798	152.1009
265.000000	86.627	152.2148
272.000000	86.463	152.4077
280.000000	86.285	152.6822
290.000000	86.070	153.0977
300.000000	85.861	153.6815
307.000000	85.740	153.9776
315.000000	85.601	154.4646
325.000000	85.440	155.1031
335.000000	85.295	155.7777
345.000000	85.165	156.4741
355.000000	85.053	157.1852
365.000000	84.950	157.8723
375.000000	84.862	158.5478
387.000000	84.772	159.3283
400.000000	84.688	160.1408
412.000000	84.622	160.8284
425.000000	84.562	161.5156
437.000000	84.514	162.1029
450.000000	84.463	162.6895
462.000000	84.423	163.1880
475.000000	84.380	163.6872
487.000000	84.341	164.1195
500.000000	84.301	164.5629
515.000000	84.255	165.0494
530.000000	84.206	165.5299
545.000000	84.159	165.9900
560.000000	84.111	166.4413
580.000000	84.050	167.0718
600.000000	83.992	167.6780
615.000000	83.948	168.1800
630.000000	83.907	168.6669
650.000000	83.856	169.3479
670.000000	83.808	170.0542
690.000000	83.765	170.7748
710.000000	83.721	171.5311
730.000000	83.675	172.4317
750.000000	83.699	173.4809
775.000000	83.718	174.2669
800.000000	83.722	175.1597
825.000000	83.737	176.0678
850.000000	83.765	176.9774
875.000000	83.803	177.8339
900.000000	83.851	178.6278
925.000000	83.888	179.3665
950.000000	83.914	-179.9301
975.000000	83.916	-179.0741
1000.000000	83.911	-177.8279
1030.000000	83.982	-175.6535
1060.000000	84.237	-173.5202
1090.000000	84.598	-172.2882
1120.000000	84.950	-171.9415
1150.000000	85.255	-172.1069
1180.000000	85.509	-172.5629
1220.000000	85.780	-173.3687
1250.000000	85.943	-174.0623
1280.000000	86.073	-174.7830
1320.000000	86.200	-175.7005
1360.000000	86.281	-176.5433
1400.000000	86.324	-177.2418
1450.000000	86.338	-177.8021
1500.000000	86.328	-177.9533
1550.000000	86.316	-177.7144
1600.000000	86.326	-177.1079
1650.000000	86.371	-176.1690
1700.000000	86.468	-175.0218
1750.000000	86.624	-173.7664
1800.000000	86.842	-172.5188
1850.000000	87.119	-171.3962
1900.000000	87.447	-170.5013
1950.000000	87.814	-169.9172
2000.000000	88.210	-169.7028
2060.000000	88.699	-169.9868
2120.000000	89.178	-170.9005
2180.000000	89.616	-172.3757
2240.000000	89.986	-174.3319
2300.000000	90.267	-176.5974
2360.000000	90.451	-178.9747
2430.000000	90.547	178.3640
2500.000000	90.535	176.0517
2580.000000	90.432	174.0290
2650.000000	90.297	172.8254
2720.000000	90.152	172.1514
2800.000000	90.001	171.8863
2900.000000	89.868	172.1181
3000.000000	89.811	172.7055
3070.000000	89.821	173.1947
3150.000000	89.874	173.6944
3250.000000	89.988	174.0872
3350.000000	90.124	174.1503
3450.000000	90.254	173.8703
3550.000000	90.361	173.3128
3650.000000	90.439	172.4569
3750.000000	90.459	171.1860
3870.000000	90.327	169.2592
4000.000000	89.926	167.3784
4120.000000	89.312	166.7335
4250.000000	88.465	168.3637
4370.000000	87.719	172.9965
4500.000000	87.327	-178.6969
4620.000000	87.674	-170.1823
4750.000000	88.739	-164.1157
4870.000000	89.852	-163.3435
5000.000000	90.676	-166.5803
5150.000000	90.905	-171.9510
5300.000000	90.516	-176.0468
5450.000000	89.834	-177.0143
5600.000000	89.144	-175.8192
5800.000000	88.317	-171.6620
6000.000000	87.685	-165.5168
6150.000000	87.359	-160.0319
6300.000000	87.169	-154.0540
6500.000000	87.137	-145.6107
6700.000000	87.370	-136.9720
6900.000000	87.892	-128.5549
7100.000000	88.720	-120.9970
7300.000000	89.839	-114.5713
7500.000000	91.365	-110.7138
7750.000000	93.499	-112.4647
8000.000000	95.083	-122.9403
8250.000000	95.269	-137.0598
8500.000000	94.466	-148.0095
8750.000000	93.332	-156.3012
9000.000000	91.823	-163.5447
9250.000000	89.814	-168.3313
9500.000000	87.531	-169.4310
9750.000000	84.981	-168.8841
10000.000000	80.865	-160.0868
10300.000000	80.051	-113.6474
10600.000000	82.614	-103.9208
10900.000000	83.593	-100.3234
11200.000000	84.336	-97.7855
11500.000000	84.933	-97.7428
11800.000000	85.184	-99.9726
12200.000000	84.824	-103.3702
12500.000000	84.299	-104.1149
12800.000000	83.911	-103.3446
13200.000000	84.072	-102.4181
13600.000000	85.338	-107.8946
14000.000000	86.486	-130.4144
14500.000000	84.328	-167.3048
15000.000000	80.044	169.7805
15500.000000	76.124	159.0508
16000.000000	72.959	152.7257
16500.000000	70.351	149.4651
17000.000000	68.646	146.8095
17500.000000	67.748	139.8634
18000.000000	67.398	126.3054
18500.000000	67.790	106.1227
19000.000000	71.597	69.2426
19500.000000	74.374	-26.5125
