* Measurement data measured by REW V5.20
* Source: Headset (USB-C to 3.5mm Headphone Jack Adapter), MICROPHONE (Master Volume), R, volume: 0.260
* Format: 256k Log Swept Sine, 1 sweep at -6.0 dBFS with no timing reference
* Dated: Aug 12, 2021 4:00:54 PM
* REW Settings:
*  C-weighting compensation: Off
*  Target level: 75.0 dB
* Note: ; 
* Measurement: RX-100 R
* Smoothing: 1/48 octave
* Frequency Step: 1/24 octave
* Start Frequency: 20.600 Hz
*
* Freq(Hz)	SPL(dB)	Phase(degrees)
20.600000	91.909950	-126.2401
21.200001	91.973694	-128.0448
21.799999	92.035362	-129.8056
22.400000	92.093040	-131.5255
23.000000	92.132957	-133.1466
23.600000	92.154549	-134.6544
24.299999	92.164391	-136.3551
25.000000	92.162636	-138.0500
25.799999	92.155243	-139.9262
26.500000	92.147797	-141.5098
27.200001	92.129433	-143.0634
28.000000	92.093987	-144.7481
29.000000	92.060005	-146.7236
30.000000	92.030930	-148.6632
30.700001	91.999298	-149.9327
31.500000	91.962006	-151.2946
32.500000	91.921570	-152.9892
33.500000	91.878098	-154.6343
34.500000	91.831444	-156.1420
35.500000	91.784180	-157.5903
36.500000	91.731461	-159.0234
37.500000	91.680840	-160.3775
38.700001	91.627380	-161.9466
40.000000	91.557220	-163.5540
41.200001	91.489723	-164.9428
42.500000	91.419266	-166.3925
43.700001	91.359863	-167.6561
45.000000	91.282211	-169.0066
46.200001	91.214706	-170.1549
47.500000	91.143417	-171.4523
48.700001	91.066292	-172.4190
50.000000	90.995621	-173.5142
51.500000	90.897736	-174.7622
53.000000	90.822670	-175.9337
54.500000	90.729256	-177.0536
56.000000	90.637077	-178.0812
58.000000	90.526230	-179.4031
60.000000	90.413979	179.4797
61.500000	90.329880	178.5063
63.000000	90.241203	177.6810
65.000000	90.127731	176.6132
67.000000	90.015762	175.6349
69.000000	89.905907	174.8469
71.000000	89.783966	173.7914
73.000000	89.674950	172.9819
75.000000	89.564636	172.2190
77.500000	89.434410	171.2314
80.000000	89.287048	170.5115
82.500000	89.151581	169.6823
85.000000	89.020325	169.0060
87.500000	88.888580	168.3591
90.000000	88.730087	167.7878
92.500000	88.629272	167.1407
95.000000	88.504845	166.6236
97.500000	88.387070	166.1739
100.000000	88.266647	165.7087
103.000000	88.135315	165.2460
106.000000	88.002289	164.8027
109.000000	87.868828	164.4077
112.000000	87.753242	164.0325
115.000000	87.624512	163.7427
118.000000	87.511490	163.4270
122.000000	87.354050	163.1690
125.000000	87.247620	162.8969
128.000000	87.130096	162.7590
132.000000	86.993652	162.5800
136.000000	86.852142	162.3728
140.000000	86.715363	162.2676
145.000000	86.553200	162.1788
150.000000	86.399078	162.1699
155.000000	86.243759	162.1979
160.000000	86.104141	162.2012
165.000000	85.959946	162.2670
170.000000	85.836609	162.4058
175.000000	85.701103	162.5452
180.000000	85.576477	162.6617
185.000000	85.457458	162.9115
190.000000	85.344292	163.1111
195.000000	85.230103	163.3370
200.000000	85.120842	163.6252
206.000000	85.002426	163.9265
212.000000	84.884972	164.2897
218.000000	84.768303	164.6167
224.000000	84.662102	165.0028
230.000000	84.557564	165.3431
236.000000	84.464310	165.7892
243.000000	84.358505	166.2979
250.000000	84.249420	166.7698
258.000000	84.134056	167.3626
265.000000	84.040710	167.8768
272.000000	83.952003	168.4097
280.000000	83.857513	169.0094
290.000000	83.747826	169.7653
300.000000	83.631180	170.5158
307.000000	83.564911	171.1054
315.000000	83.495087	171.6876
325.000000	83.403564	172.5436
335.000000	83.324188	173.2817
345.000000	83.248283	174.0801
355.000000	83.179192	174.8720
365.000000	83.112518	175.6689
375.000000	83.053177	176.4596
387.000000	82.984741	177.3710
400.000000	82.920441	178.3771
412.000000	82.861252	179.3334
425.000000	82.809906	-179.6444
437.000000	82.766434	-178.7524
450.000000	82.719040	-177.7603
462.000000	82.681931	-176.8452
475.000000	82.647484	-175.8776
487.000000	82.618301	-174.9790
500.000000	82.593613	-173.9846
515.000000	82.567474	-172.8866
530.000000	82.543259	-171.7671
545.000000	82.527107	-170.6835
560.000000	82.515823	-169.5568
580.000000	82.503975	-168.1010
600.000000	82.496758	-166.6771
615.000000	82.494835	-165.5647
630.000000	82.491844	-164.4592
650.000000	82.481598	-162.8735
670.000000	82.524475	-160.7361
690.000000	82.673256	-159.6551
710.000000	82.693161	-158.5436
730.000000	82.722099	-157.1665
750.000000	82.765564	-155.6564
775.000000	82.864922	-153.6717
800.000000	82.996185	-152.0354
825.000000	83.110420	-150.3828
850.000000	83.238510	-148.7038
875.000000	83.387085	-147.0329
900.000000	83.553238	-145.4046
925.000000	83.736595	-143.8697
950.000000	83.938690	-142.3998
975.000000	84.153648	-141.0366
1000.000000	84.381752	-139.7860
1030.000000	84.668015	-138.4456
1060.000000	84.963333	-137.3064
1090.000000	85.263763	-136.3541
1120.000000	85.565041	-135.5785
1150.000000	85.859344	-134.9587
1180.000000	86.149300	-134.4961
1220.000000	86.522949	-134.0599
1250.000000	86.792282	-133.8546
1280.000000	87.053017	-133.7266
1320.000000	87.386978	-133.6717
1360.000000	87.709381	-133.7232
1400.000000	88.018456	-133.8677
1450.000000	88.395462	-134.1751
1500.000000	88.759766	-134.6260
1550.000000	89.112946	-135.2276
1600.000000	89.455536	-135.9917
1650.000000	89.782516	-136.9433
1700.000000	90.092194	-138.0683
1750.000000	90.380676	-139.3710
1800.000000	90.643715	-140.8438
1850.000000	90.875534	-142.4746
1900.000000	91.074188	-144.2390
1950.000000	91.233559	-146.1165
2000.000000	91.349525	-148.0518
2060.000000	91.427956	-150.3938
2120.000000	91.440567	-152.6279
2180.000000	91.395309	-154.6629
2240.000000	91.304901	-156.4151
2300.000000	91.184784	-157.8474
2360.000000	91.046608	-158.9686
2430.000000	90.879196	-159.8887
2500.000000	90.716347	-160.4374
2580.000000	90.550217	-160.6628
2650.000000	90.433029	-160.5580
2720.000000	90.348396	-160.2237
2800.000000	90.305626	-159.6331
2900.000000	90.348396	-158.8048
3000.000000	90.493004	-158.2054
3070.000000	90.633453	-158.0623
3150.000000	90.815285	-158.1705
3250.000000	91.065247	-158.6538
3350.000000	91.344788	-159.5684
3450.000000	91.647812	-161.0434
3550.000000	91.955849	-163.2117
3650.000000	92.237457	-166.2078
3750.000000	92.449944	-170.0505
3870.000000	92.542580	-175.6648
4000.000000	92.363045	177.5049
4120.000000	91.903595	171.2574
4250.000000	91.118301	165.3734
4370.000000	90.197884	161.2484
4500.000000	89.075600	158.4889
4620.000000	88.019859	157.6513
4750.000000	86.982056	158.1466
4870.000000	86.115021	159.1013
5000.000000	85.212715	160.6684
5150.000000	84.232735	163.2973
5300.000000	83.345779	166.6794
5450.000000	82.557266	170.6193
5600.000000	81.870934	175.1129
5800.000000	81.140549	-178.4410
6000.000000	80.596001	-171.6242
6150.000000	80.309921	-166.3620
6300.000000	80.139381	-161.0462
6500.000000	80.090057	-153.9807
6700.000000	80.267075	-147.1356
6900.000000	80.685135	-140.8170
7100.000000	81.365799	-135.3985
7300.000000	82.312187	-131.6147
7500.000000	83.419014	-130.1280
7750.000000	85.030434	-131.7894
8000.000000	86.621216	-139.6064
8250.000000	87.522484	-154.3758
8500.000000	87.002335	-171.2864
8750.000000	85.383965	176.9333
9000.000000	83.485069	171.8989
9250.000000	81.989799	170.6776
9500.000000	80.721893	171.2961
9750.000000	79.747337	172.6863
10000.000000	78.974655	173.9938
10300.000000	78.150131	175.2315
10600.000000	77.306267	176.9243
10900.000000	76.528297	-179.3813
11200.000000	76.175247	-172.7987
11500.000000	76.881729	-165.2316
11800.000000	78.842461	-163.9195
12200.000000	81.212776	179.5029
12500.000000	81.435196	160.5255
12800.000000	80.602234	144.2880
13200.000000	79.182999	128.9666
13600.000000	78.267830	116.1862
14000.000000	77.990097	100.4992
14500.000000	77.722229	70.3326
15000.000000	75.565239	32.0542
15500.000000	71.866241	2.7024
16000.000000	68.555443	-17.9777
16500.000000	66.221512	-35.9196
17000.000000	64.911140	-55.6855
17500.000000	64.542290	-81.7229
18000.000000	64.379478	-122.1533
18500.000000	64.114037	-163.7113
19000.000000	63.852345	129.1619
19500.000000	61.547871	40.1287
