* Measurement data measured by REW V5.20
* Source: Headset (USB-C to 3.5mm Headphone Jack Adapter), MICROPHONE (Master Volume), R, volume: 0.260
* Format: 256k Log Swept Sine, 1 sweep at -6.0 dBFS with no timing reference
* Dated: Apr 6, 2021 9:57:45 AM
* REW Settings:
*  C-weighting compensation: Off
*  Target level: 75.0 dB
* Note: ; 
* Measurement: Fearless S8Z - R
* Smoothing: 1/48 octave
* Frequency Step: 1/24 octave
* Start Frequency: 20.600 Hz
*
* Freq(Hz)	SPL(dB)	Phase(degrees)
20.600000	89.438049	69.9243
21.200001	89.528511	68.3641
21.799999	89.603432	66.8264
22.400000	89.676437	65.4149
23.000000	89.752960	64.0976
23.600000	89.826691	62.7980
24.299999	89.900688	61.2341
25.000000	89.951660	59.5929
25.799999	89.972672	57.8191
26.500000	89.992691	56.5502
27.200001	90.046509	55.3508
28.000000	90.107643	53.7997
29.000000	90.133720	51.9593
30.000000	90.171722	50.2514
30.700001	90.213638	48.9588
31.500000	90.255524	47.5947
32.500000	90.319016	46.0674
33.500000	90.355240	44.5681
34.500000	90.376755	43.1701
35.500000	90.418198	41.7423
36.500000	90.449768	40.4337
37.500000	90.473244	39.2873
38.700001	90.483849	37.6510
40.000000	90.480057	36.0878
41.200001	90.513336	34.8310
42.500000	90.501663	33.3741
43.700001	90.499413	32.0947
45.000000	90.503502	30.7427
46.200001	90.493095	29.5277
47.500000	90.482315	28.3229
48.700001	90.466827	27.2408
50.000000	90.436493	26.1465
51.500000	90.421799	24.8709
53.000000	90.404465	23.6887
54.500000	90.371101	22.5205
56.000000	90.365875	21.3333
58.000000	90.373070	19.9617
60.000000	90.341957	18.5107
61.500000	90.355453	17.5638
63.000000	90.336731	16.6476
65.000000	90.330345	15.3648
67.000000	90.314796	14.2849
69.000000	90.287605	13.0878
71.000000	90.269081	11.9937
73.000000	90.246429	11.0049
75.000000	90.210632	10.0305
77.500000	90.174751	8.7783
80.000000	90.141327	7.6649
82.500000	90.099617	6.5711
85.000000	90.056976	5.5266
87.500000	90.007301	4.4771
90.000000	89.952499	3.5112
92.500000	89.906059	2.6247
95.000000	89.856461	1.7372
97.500000	89.806625	0.8897
100.000000	89.755814	0.0553
103.000000	89.709023	-0.8895
106.000000	89.666199	-1.7968
109.000000	89.624153	-2.6582
112.000000	89.576035	-3.4900
115.000000	89.531570	-4.3074
118.000000	89.479515	-5.0646
122.000000	89.417130	-6.0598
125.000000	89.363983	-6.7356
128.000000	89.312195	-7.4048
132.000000	89.244286	-8.2470
136.000000	89.177101	-9.0591
140.000000	89.103271	-9.8251
145.000000	89.012283	-10.7600
150.000000	88.922272	-11.5873
155.000000	88.830765	-12.3895
160.000000	88.741470	-13.1388
165.000000	88.650375	-13.8408
170.000000	88.557587	-14.5017
175.000000	88.470100	-15.1077
180.000000	88.377808	-15.7163
185.000000	88.289833	-16.2455
190.000000	88.201180	-16.7502
195.000000	88.111069	-17.2535
200.000000	88.022110	-17.6986
206.000000	87.923714	-18.2060
212.000000	87.819870	-18.6850
218.000000	87.718445	-19.0865
224.000000	87.619148	-19.4890
230.000000	87.522011	-19.8638
236.000000	87.428093	-20.1894
243.000000	87.318489	-20.5423
250.000000	87.210754	-20.8711
258.000000	87.091911	-21.1985
265.000000	86.990082	-21.4500
272.000000	86.893471	-21.6801
280.000000	86.781990	-21.9187
290.000000	86.649864	-22.1527
300.000000	86.518730	-22.3600
307.000000	86.434341	-22.4690
315.000000	86.338333	-22.5699
325.000000	86.221794	-22.6718
335.000000	86.112732	-22.7369
345.000000	86.005600	-22.7714
355.000000	85.902962	-22.7940
365.000000	85.804428	-22.7696
375.000000	85.710693	-22.7184
387.000000	85.602646	-22.6430
400.000000	85.492783	-22.5365
412.000000	85.396904	-22.3993
425.000000	85.299644	-22.2286
437.000000	85.216194	-22.0446
450.000000	85.129913	-21.8277
462.000000	85.056061	-21.6003
475.000000	84.980919	-21.3347
487.000000	84.917213	-21.0744
500.000000	84.852966	-20.7716
515.000000	84.784302	-20.4044
530.000000	84.724297	-20.0168
545.000000	84.670135	-19.5994
560.000000	84.622025	-19.1707
580.000000	84.568329	-18.5750
600.000000	84.523460	-17.9271
615.000000	84.500694	-17.4351
630.000000	84.482193	-16.9313
650.000000	84.469734	-16.2207
670.000000	84.466827	-15.4855
690.000000	84.474098	-14.7331
710.000000	84.494835	-13.9605
730.000000	84.526886	-13.1587
750.000000	84.572792	-12.3468
775.000000	84.647125	-11.3190
800.000000	84.742729	-10.2905
825.000000	84.860947	-9.2506
850.000000	85.001633	-8.2397
875.000000	85.163116	-7.2703
900.000000	85.348976	-6.3494
925.000000	85.554298	-5.5031
950.000000	85.780670	-4.7545
975.000000	86.025017	-4.1105
1000.000000	86.284187	-3.6087
1030.000000	86.611023	-3.1776
1060.000000	86.948631	-2.9736
1090.000000	87.290428	-2.9790
1120.000000	87.629593	-3.1862
1150.000000	87.960205	-3.5807
1180.000000	88.279488	-4.1309
1220.000000	88.682144	-5.0666
1250.000000	88.966248	-5.8848
1280.000000	89.234802	-6.7730
1320.000000	89.568245	-8.0312
1360.000000	89.878601	-9.3462
1400.000000	90.166122	-10.6846
1450.000000	90.498405	-12.3833
1500.000000	90.805321	-14.0910
1550.000000	91.091019	-15.8075
1600.000000	91.355545	-17.5426
1650.000000	91.598457	-19.2985
1700.000000	91.819138	-21.0825
1750.000000	92.014145	-22.8692
1800.000000	92.178902	-24.6573
1850.000000	92.312790	-26.4263
1900.000000	92.414536	-28.1382
1950.000000	92.484985	-29.7578
2000.000000	92.527847	-31.2593
2060.000000	92.545418	-32.8640
2120.000000	92.533638	-34.2198
2180.000000	92.499252	-35.3102
2240.000000	92.451523	-36.1274
2300.000000	92.395050	-36.6625
2360.000000	92.340057	-36.9351
2430.000000	92.283699	-36.9375
2500.000000	92.244339	-36.6333
2580.000000	92.232590	-35.9331
2650.000000	92.261131	-35.0476
2720.000000	92.334709	-33.9547
2800.000000	92.493904	-32.5164
2900.000000	92.833824	-30.6993
3000.000000	93.352463	-29.4840
3070.000000	93.791779	-29.5206
3150.000000	94.271088	-30.7904
3250.000000	94.655075	-33.6893
3350.000000	94.759140	-36.5715
3450.000000	94.705811	-38.5902
3550.000000	94.594284	-39.7103
3650.000000	94.481140	-40.0479
3750.000000	94.409576	-39.7946
3870.000000	94.412659	-39.0648
4000.000000	94.530937	-38.2261
4120.000000	94.728958	-37.7892
4250.000000	94.997040	-38.0339
4370.000000	95.232788	-39.1029
4500.000000	95.396965	-41.1326
4620.000000	95.399658	-43.4877
4750.000000	95.220833	-45.8880
4870.000000	94.937347	-47.3920
5000.000000	94.614563	-48.0401
5150.000000	94.372475	-48.1558
5300.000000	94.293411	-49.3339
5450.000000	94.063416	-53.0766
5600.000000	93.189354	-57.6890
5800.000000	91.140808	-56.4809
6000.000000	90.637390	-46.8478
6150.000000	90.492279	-50.3147
6300.000000	89.097839	-51.0638
6500.000000	87.399521	-43.1170
6700.000000	86.478760	-33.5231
6900.000000	85.917770	-23.8098
7100.000000	85.670227	-14.3321
7300.000000	85.699371	-5.6554
7500.000000	85.927246	1.8614
7750.000000	86.411697	9.2446
8000.000000	86.977661	13.8437
8250.000000	87.402733	15.5196
8500.000000	87.477676	15.1499
8750.000000	87.084595	14.0818
9000.000000	86.155800	14.4396
9250.000000	85.004181	18.6162
9500.000000	84.058899	26.4273
9750.000000	83.636078	36.2725
10000.000000	83.882469	45.6694
10300.000000	84.910660	52.0948
10600.000000	85.857086	49.6381
10900.000000	85.611115	42.4484
11200.000000	84.309692	39.5022
11500.000000	83.216133	40.6522
11800.000000	82.287430	41.3931
12200.000000	80.642151	42.0307
12500.000000	79.271782	43.4513
12800.000000	77.685028	48.0721
13200.000000	76.170235	58.4408
13600.000000	76.358704	68.2018
14000.000000	75.665688	57.0172
14500.000000	73.926590	71.2300
15000.000000	73.979828	64.1109
15500.000000	72.960274	55.6449
16000.000000	71.234451	43.3220
16500.000000	69.025848	32.0980
17000.000000	66.820099	21.2183
17500.000000	64.880058	8.1150
18000.000000	62.853329	-9.4605
18500.000000	60.731857	-29.9233
19000.000000	58.994640	-49.4389
19500.000000	58.936893	-88.1897
