* Measurement data measured by REW V5.20 Beta 59
* Source: Headset (USB-C to 3.5mm Headphone Jack Adapter), MICROPHONE (Master Volume), R, volume: 0.169
* Format: 512k Log Swept Sine, 1 sweep at -6.0 dBFS with no timing reference
* Dated: Sep 19, 2020 2:25:43 PM
* REW Settings:
*  C-weighting compensation: Off
*  Target level: 75.0 dB
* Note: ; 
* Measurement: SA6 - On L
* Smoothing: 1/48 octave
* Frequency Step: 1/24 octave
* Start Frequency: 20.600 Hz
*
* Freq(Hz)	SPL(dB)	Phase(degrees)
20.600000	86.236748	-137.7341
21.200001	86.259026	-139.5575
21.799999	86.285492	-141.1029
22.400000	86.300064	-142.4910
23.000000	86.309387	-143.9804
23.600000	86.312309	-145.5410
24.299999	86.316910	-147.3691
25.000000	86.328209	-149.0800
25.799999	86.318993	-151.1243
26.500000	86.311188	-152.7280
27.200001	86.273994	-154.1899
28.000000	86.241539	-155.8647
29.000000	86.186508	-157.8285
30.000000	86.122101	-159.8628
30.700001	86.098152	-161.3223
31.500000	86.115105	-162.8103
32.500000	86.110085	-164.6400
33.500000	86.070984	-166.3300
34.500000	86.058289	-168.1258
35.500000	86.035049	-169.6886
36.500000	85.993408	-171.3201
37.500000	85.948303	-172.9307
38.700001	85.896286	-174.7148
40.000000	85.823006	-176.6507
41.200001	85.761917	-178.1955
42.500000	85.697273	179.9160
43.700001	85.592705	178.4215
45.000000	85.525414	176.6978
46.200001	85.441544	175.2672
47.500000	85.353989	173.6856
48.700001	85.267830	172.2748
50.000000	85.170654	170.8037
51.500000	85.049141	169.1876
53.000000	84.920082	167.6204
54.500000	84.798477	166.0305
56.000000	84.699318	164.7223
58.000000	84.613487	162.6918
60.000000	84.521355	160.7468
61.500000	84.430359	159.5948
63.000000	84.354042	158.3080
65.000000	84.247276	156.6683
67.000000	84.138596	155.1083
69.000000	84.029480	153.5860
71.000000	83.915352	152.1151
73.000000	83.804283	150.7052
75.000000	83.686028	149.3253
77.500000	83.544174	147.6929
80.000000	83.399612	146.1410
82.500000	83.256424	144.5973
85.000000	83.114395	143.1132
87.500000	82.967964	141.7647
90.000000	82.801407	139.9782
92.500000	82.676765	139.1169
95.000000	82.537750	137.8286
97.500000	82.400436	136.6157
100.000000	82.258339	135.5172
103.000000	82.121193	134.1965
106.000000	81.991348	132.9016
109.000000	81.868271	131.6517
112.000000	81.725777	130.5294
115.000000	81.595917	129.3610
118.000000	81.476517	128.2420
122.000000	81.314774	126.7740
125.000000	81.194595	125.7727
128.000000	81.077423	124.8363
132.000000	80.920708	123.5750
136.000000	80.774277	122.3531
140.000000	80.627296	121.2140
145.000000	80.452911	119.8546
150.000000	80.284851	118.5542
155.000000	80.121452	117.2928
160.000000	79.961700	116.1236
165.000000	79.807076	115.0339
170.000000	79.663078	113.9304
175.000000	79.527870	112.8597
180.000000	79.382843	111.9169
185.000000	79.258575	110.9906
190.000000	79.133926	110.0598
195.000000	79.018867	109.1728
200.000000	78.904953	108.3582
206.000000	78.770569	107.3920
212.000000	78.648033	106.4423
218.000000	78.531960	105.5568
224.000000	78.412399	104.7061
230.000000	78.308807	103.9269
236.000000	78.211685	103.1281
243.000000	78.110367	102.2194
250.000000	78.005135	101.4053
258.000000	77.888588	100.5028
265.000000	77.803688	99.7167
272.000000	77.724693	98.9712
280.000000	77.637772	98.1951
290.000000	77.542580	97.2195
300.000000	77.451302	96.3161
307.000000	77.401337	95.6993
315.000000	77.343391	95.0388
325.000000	77.287300	94.2087
335.000000	77.239952	93.4176
345.000000	77.187408	92.7208
355.000000	77.150185	92.0142
365.000000	77.123749	91.3130
375.000000	77.101318	90.6474
387.000000	77.079613	89.9048
400.000000	77.066772	89.1227
412.000000	77.063347	88.4228
425.000000	77.062271	87.7041
437.000000	77.071480	87.0536
450.000000	77.088402	86.3818
462.000000	77.108521	85.7793
475.000000	77.135727	85.1413
487.000000	77.162506	84.5777
500.000000	77.191681	83.9974
515.000000	77.235046	83.3235
530.000000	77.284760	82.6986
545.000000	77.335854	82.0788
560.000000	77.388474	81.4833
580.000000	77.464508	80.7237
600.000000	77.541664	79.9984
615.000000	77.600883	79.4851
630.000000	77.664619	79.0009
650.000000	77.744972	78.3822
670.000000	77.831337	77.7949
690.000000	77.920326	77.2480
710.000000	78.009361	76.7581
730.000000	78.102242	76.2990
750.000000	78.196907	75.8808
775.000000	78.319054	75.4134
800.000000	78.450752	74.9960
825.000000	78.588593	74.6335
850.000000	78.735428	74.3095
875.000000	78.890152	74.0013
900.000000	79.054695	73.7092
925.000000	79.231155	73.3979
950.000000	79.418442	73.0739
975.000000	79.612045	72.6950
1000.000000	79.810593	72.2593
1030.000000	80.053452	71.6313
1060.000000	80.298416	70.9053
1090.000000	80.538292	70.0692
1120.000000	80.769783	69.1281
1150.000000	80.989120	68.0908
1180.000000	81.191330	66.9977
1220.000000	81.434563	65.4770
1250.000000	81.598991	64.3289
1280.000000	81.747337	63.1937
1320.000000	81.923050	61.7279
1360.000000	82.077591	60.3402
1400.000000	82.220161	59.0345
1450.000000	82.385582	57.5295
1500.000000	82.538116	56.1445
1550.000000	82.690369	54.8486
1600.000000	82.842560	53.6048
1650.000000	82.991997	52.4010
1700.000000	83.139084	51.1975
1750.000000	83.281395	50.0173
1800.000000	83.418350	48.8683
1850.000000	83.558838	47.7457
1900.000000	83.706253	46.6139
1950.000000	83.857674	45.4102
2000.000000	84.008804	44.1017
2060.000000	84.177826	42.3778
2120.000000	84.325691	40.4765
2180.000000	84.442757	38.4463
2240.000000	84.521454	36.3168
2300.000000	84.555153	34.1516
2360.000000	84.541046	32.0161
2430.000000	84.468536	29.6574
2500.000000	84.344200	27.5463
2580.000000	84.151619	25.5250
2650.000000	83.954857	24.1225
2720.000000	83.745132	23.0861
2800.000000	83.501137	22.3626
2900.000000	83.219986	22.1005
3000.000000	82.993774	22.4316
3070.000000	82.879967	22.9274
3150.000000	82.802460	23.6315
3250.000000	82.778778	24.5363
3350.000000	82.814552	25.2928
3450.000000	82.876678	25.9261
3550.000000	82.961975	26.6064
3650.000000	83.097336	27.3972
3750.000000	83.313522	28.1778
3870.000000	83.699081	28.7234
4000.000000	84.253807	28.3164
4120.000000	84.847900	26.5182
4250.000000	85.483086	22.5595
4370.000000	85.932404	16.7612
4500.000000	86.056961	8.3462
4620.000000	85.653374	-0.1813
4750.000000	84.632751	-8.0061
4870.000000	83.334854	-12.3982
5000.000000	81.807938	-13.6884
5150.000000	80.142914	-11.2947
5300.000000	78.737404	-5.6902
5450.000000	77.692451	2.2685
5600.000000	77.077843	11.7578
5800.000000	77.034294	25.0576
6000.000000	77.689354	35.9786
6150.000000	78.489044	44.9056
6300.000000	80.004913	50.3845
6500.000000	82.174644	50.5002
6700.000000	83.855118	42.9614
6900.000000	84.417877	32.0364
7100.000000	84.098541	23.7587
7300.000000	83.587219	19.2180
7500.000000	83.173347	16.8995
7750.000000	82.999359	14.7806
8000.000000	82.991791	10.7088
8250.000000	82.759552	4.3843
8500.000000	82.045990	-2.3593
8750.000000	80.935677	-7.0370
9000.000000	79.737755	-8.7336
9250.000000	78.646935	-8.0588
9500.000000	77.897110	-5.1821
9750.000000	77.578461	-2.2374
10000.000000	77.664360	-0.3136
10300.000000	78.213684	-1.9296
10600.000000	78.498253	-11.3541
10900.000000	77.148506	-22.6461
11200.000000	75.023872	-23.5340
11500.000000	73.778778	-17.8612
11800.000000	73.484550	-12.5646
12200.000000	73.829918	-10.6614
12500.000000	74.150940	-12.8970
12800.000000	74.530312	-17.8085
13200.000000	74.644333	-29.6360
13600.000000	74.099609	-42.6488
14000.000000	73.447433	-54.6790
14500.000000	73.209488	-70.6792
15000.000000	73.770035	-94.4520
15500.000000	73.887711	-130.6915
16000.000000	72.304382	-171.1381
16500.000000	69.014488	155.9906
17000.000000	66.930206	134.2716
17500.000000	65.554108	105.5635
18000.000000	64.372269	73.6160
18500.000000	63.827351	33.4410
19000.000000	63.836903	-22.8046
19500.000000	63.610500	-105.6727
