* Measurement data measured by REW V5.20 Beta 31
* Source: IEC-711 (3- USB Sound Device        ), MICROPHONE (Master Volume), R, volume: 0.530
* Format: 1M Log Swept Sine, 1 sweep at 0.0 dBFS With no timing reference
* Dated: Jan 20, 2020 7:13:35 PM
* REW Settings:
*  C-weighting compensation: Off
*  Target level: 75.0 dB
* Note: ; 
* Measurement: Shuoer Singer - L Blue
* Smoothing: 1/48 octave
* Frequency Step: 1/24 octave
* Start Frequency: 20.600 Hz
*
* Freq(Hz)	SPL(dB)	Phase(degrees)
20.600000	89.065880	-138.7826
21.200001	89.121674	-139.2917
21.799999	89.152565	-139.9356
22.400000	89.148857	-140.6474
23.000000	89.133209	-141.2928
23.600000	89.135544	-141.9426
24.299999	89.153534	-142.8612
25.000000	89.160736	-143.8417
25.799999	89.166382	-144.7524
26.500000	89.191818	-145.3964
27.200001	89.224136	-146.0221
28.000000	89.246040	-146.6635
29.000000	89.261650	-147.3196
30.000000	89.249504	-148.0108
30.700001	89.218300	-148.4010
31.500000	89.194504	-148.7712
32.500000	89.172829	-149.4181
33.500000	89.130974	-150.0293
34.500000	89.111732	-150.5231
35.500000	89.094742	-151.0600
36.500000	89.068062	-151.4641
37.500000	89.040596	-151.8021
38.700001	88.988647	-152.1370
40.000000	88.926987	-152.4299
41.200001	88.865463	-152.7353
42.500000	88.799675	-153.0437
43.700001	88.747932	-153.3208
45.000000	88.686607	-153.5648
46.200001	88.635338	-153.6818
47.500000	88.569984	-153.8045
48.700001	88.503021	-153.8362
50.000000	88.426682	-153.8646
51.500000	88.343765	-153.8929
53.000000	88.259804	-153.9155
54.500000	88.174042	-153.8592
56.000000	88.095634	-153.7279
58.000000	87.992455	-153.4821
60.000000	87.888512	-153.0167
61.500000	87.808456	-153.1122
63.000000	87.718987	-152.8671
65.000000	87.605789	-152.6211
67.000000	87.500053	-152.1901
69.000000	87.409592	-151.8290
71.000000	87.299362	-151.4137
73.000000	87.184143	-150.8940
75.000000	87.087021	-150.4833
77.500000	86.969986	-149.8127
80.000000	86.840027	-149.1971
82.500000	86.713516	-148.5051
85.000000	86.593498	-147.8377
87.500000	86.476044	-147.1233
90.000000	86.352005	-146.4109
92.500000	86.227249	-145.6359
95.000000	86.101906	-144.8797
97.500000	85.989380	-144.0623
100.000000	85.869438	-143.2829
103.000000	85.724686	-142.2763
106.000000	85.584518	-141.2516
109.000000	85.431702	-140.2293
112.000000	85.291908	-139.1550
115.000000	85.137764	-138.0622
118.000000	84.999573	-137.1089
122.000000	84.800430	-135.5560
125.000000	84.684486	-134.3436
128.000000	84.532700	-133.0780
132.000000	84.358429	-131.5466
136.000000	84.179749	-129.9469
140.000000	83.996170	-128.2274
145.000000	83.798088	-126.3044
150.000000	83.587891	-124.1238
155.000000	83.367119	-121.9120
160.000000	83.161453	-119.7672
165.000000	82.960938	-117.5198
170.000000	82.761986	-115.2873
175.000000	82.605309	-113.0372
180.000000	82.401749	-110.7465
185.000000	82.210480	-108.5443
190.000000	82.046318	-106.2601
195.000000	81.882401	-103.9442
200.000000	81.710701	-101.6856
206.000000	81.515472	-98.8657
212.000000	81.322388	-96.1742
218.000000	81.147774	-93.3176
224.000000	80.964371	-90.5805
230.000000	80.791237	-87.7690
236.000000	80.617020	-84.9807
243.000000	80.413605	-81.7520
250.000000	80.228180	-78.5322
258.000000	80.029251	-74.7568
265.000000	79.855194	-71.6175
272.000000	79.686905	-68.3523
280.000000	79.498344	-64.6446
290.000000	79.271561	-60.0822
300.000000	79.043320	-55.3812
307.000000	78.902954	-52.2882
315.000000	78.756485	-48.5826
325.000000	78.549988	-44.0975
335.000000	78.362076	-39.6760
345.000000	78.154610	-35.2759
355.000000	77.998695	-30.8022
365.000000	77.816261	-26.2372
375.000000	77.663185	-21.8014
387.000000	77.468315	-16.5260
400.000000	77.262077	-10.8301
412.000000	77.102051	-5.6412
425.000000	76.913582	-0.1361
437.000000	76.767181	5.0366
450.000000	76.589302	10.4478
462.000000	76.446251	15.5120
475.000000	76.298912	20.8470
487.000000	76.182556	25.8690
500.000000	76.034538	31.3083
515.000000	75.888550	37.4693
530.000000	75.730484	43.5145
545.000000	75.593674	49.4739
560.000000	75.462692	55.4564
580.000000	75.305695	63.3494
600.000000	75.148598	71.2692
615.000000	75.060387	77.0019
630.000000	74.966751	82.7058
650.000000	74.815277	90.4523
670.000000	74.709610	98.0145
690.000000	74.596115	105.3391
710.000000	74.508789	112.7735
730.000000	74.371986	120.0389
750.000000	74.253654	127.5444
775.000000	74.167381	136.6892
800.000000	74.099716	145.8546
825.000000	74.024689	155.2490
850.000000	73.985184	164.2116
875.000000	73.998947	173.2589
900.000000	74.025345	-177.9860
925.000000	74.053421	-169.0718
950.000000	74.124336	-160.3605
975.000000	74.253906	-151.8554
1000.000000	74.334564	-144.1265
1030.000000	74.555275	-133.8128
1060.000000	74.782745	-124.1745
1090.000000	75.039810	-114.9259
1120.000000	75.337784	-106.2986
1150.000000	75.634560	-97.7888
1180.000000	75.939209	-89.7239
1220.000000	76.323357	-79.5588
1250.000000	76.624786	-72.2264
1280.000000	76.881554	-65.2495
1320.000000	77.203018	-56.2980
1360.000000	77.503319	-47.6233
1400.000000	77.779449	-39.1406
1450.000000	78.070984	-28.6980
1500.000000	78.365616	-18.5292
1550.000000	78.633736	-8.5103
1600.000000	78.923721	1.4373
1650.000000	79.205605	11.0422
1700.000000	79.502777	20.5096
1750.000000	79.796135	29.8643
1800.000000	80.129234	38.8640
1850.000000	80.464760	47.7372
1900.000000	80.811104	56.2703
1950.000000	81.180801	64.6223
2000.000000	81.562927	72.8123
2060.000000	82.050896	81.8759
2120.000000	82.566261	90.7225
2180.000000	83.090363	99.0969
2240.000000	83.643044	106.9509
2300.000000	84.211716	114.3212
2360.000000	84.788025	121.0360
2430.000000	85.479919	128.2363
2500.000000	86.152115	134.5707
2580.000000	86.908981	140.7473
2650.000000	87.520012	145.2181
2720.000000	88.065430	148.8842
2800.000000	88.580734	152.1703
2900.000000	89.019592	155.3593
3000.000000	89.233704	157.9647
3070.000000	89.261864	159.8923
3150.000000	89.202507	162.2462
3250.000000	89.030777	165.5885
3350.000000	88.819626	169.4291
3450.000000	88.626305	173.6251
3550.000000	88.473022	177.9251
3650.000000	88.377754	-177.8431
3750.000000	88.349434	-173.9324
3870.000000	88.393913	-169.8625
4000.000000	88.518456	-166.8917
4120.000000	88.638802	-165.6556
4250.000000	88.675804	-166.2614
4370.000000	88.509659	-168.4166
4500.000000	87.994667	-171.7375
4620.000000	87.202225	-174.7399
4750.000000	86.062416	-176.8827
4870.000000	84.876587	-177.5191
5000.000000	83.537605	-176.8149
5150.000000	82.026360	-174.5536
5300.000000	80.618813	-171.2068
5450.000000	79.329002	-167.0829
5600.000000	78.176964	-162.5943
5800.000000	76.860229	-156.3036
6000.000000	75.770020	-150.0961
6150.000000	75.087250	-145.6857
6300.000000	74.520538	-141.4745
6500.000000	73.917305	-136.6884
6700.000000	73.469315	-132.5438
6900.000000	73.164879	-129.1678
7100.000000	73.032471	-126.7814
7300.000000	73.041634	-125.0377
7500.000000	73.250809	-123.9789
7750.000000	73.849030	-124.2561
8000.000000	74.771507	-126.6853
8250.000000	76.246941	-131.9319
8500.000000	78.271790	-142.0258
8750.000000	80.801857	-161.2233
9000.000000	82.593895	164.1926
9250.000000	81.520203	123.7435
9500.000000	78.653694	95.3499
9750.000000	75.891640	76.4894
10000.000000	73.624794	61.6346
10300.000000	71.397415	45.7411
10600.000000	69.517281	30.6053
10900.000000	67.856888	16.9717
11200.000000	66.513260	3.9531
11500.000000	65.654022	-7.8895
11800.000000	65.377602	-19.7977
12200.000000	65.793053	-36.8632
12500.000000	66.953835	-53.1211
12800.000000	68.596466	-73.6111
13200.000000	71.126457	-110.0302
13600.000000	73.354416	-156.4655
14000.000000	74.845230	150.7960
14500.000000	75.651360	79.3560
15000.000000	75.138367	6.2711
15500.000000	73.745956	-62.6996
16000.000000	72.390427	-127.0405
16500.000000	71.538849	170.5801
17000.000000	71.171272	107.5194
17500.000000	71.385910	41.0978
18000.000000	71.880646	-30.9767
18500.000000	72.242523	-109.9264
19000.000000	71.902725	162.3884
19500.000000	69.846146	72.0753
