* Measurement data measured by REW V5.20 Beta 31
* Source: IEC-711 (3- USB Sound Device        ), MICROPHONE (Master Volume), R, volume: 0.530
* Format: 1M Log Swept Sine, 1 sweep at 0.0 dBFS With no timing reference
* Dated: Jan 20, 2020 7:12:15 PM
* REW Settings:
*  C-weighting compensation: Off
*  Target level: 75.0 dB
* Note: ; 
* Measurement: Shuoer Singer - L
* Smoothing: 1/48 octave
* Frequency Step: 1/24 octave
* Start Frequency: 20.600 Hz
*
* Freq(Hz)	SPL(dB)	Phase(degrees)
20.600000	88.962379	-138.9557
21.200001	88.999397	-139.3409
21.799999	89.046669	-139.6474
22.400000	89.099113	-140.2022
23.000000	89.122681	-141.0055
23.600000	89.116783	-141.8038
24.299999	89.114586	-142.6158
25.000000	89.135216	-143.4657
25.799999	89.150902	-144.5112
26.500000	89.149940	-145.2453
27.200001	89.162689	-145.7598
28.000000	89.199379	-146.3172
29.000000	89.224594	-147.1285
30.000000	89.194794	-147.8387
30.700001	89.162674	-148.1364
31.500000	89.151756	-148.4513
32.500000	89.127525	-149.1572
33.500000	89.066818	-149.6008
34.500000	89.079224	-149.9821
35.500000	89.070290	-150.7556
36.500000	89.026741	-151.2597
37.500000	88.990311	-151.6681
38.700001	88.939102	-151.9942
40.000000	88.880333	-152.4198
41.200001	88.810326	-152.6244
42.500000	88.759064	-152.9221
43.700001	88.700287	-153.1761
45.000000	88.644676	-153.3688
46.200001	88.594826	-153.5365
47.500000	88.525017	-153.6742
48.700001	88.459885	-153.7436
50.000000	88.373421	-153.8041
51.500000	88.288437	-153.7223
53.000000	88.222588	-153.7352
54.500000	88.138504	-153.7580
56.000000	88.049889	-153.6249
58.000000	87.948700	-153.3744
60.000000	87.866486	-153.0627
61.500000	87.764618	-153.1116
63.000000	87.675468	-152.8869
65.000000	87.562027	-152.4538
67.000000	87.471649	-152.0024
69.000000	87.337234	-151.5985
71.000000	87.235443	-151.1007
73.000000	87.139511	-150.6823
75.000000	87.058228	-150.1533
77.500000	86.947418	-149.6452
80.000000	86.812462	-148.9884
82.500000	86.688133	-148.2956
85.000000	86.557266	-147.6886
87.500000	86.446014	-147.0058
90.000000	86.327232	-146.2272
92.500000	86.201256	-145.3957
95.000000	86.067177	-144.7513
97.500000	85.945602	-143.9411
100.000000	85.839127	-143.2146
103.000000	85.679756	-142.3043
106.000000	85.539825	-141.0884
109.000000	85.396957	-140.1161
112.000000	85.262749	-139.0889
115.000000	85.111160	-137.9885
118.000000	84.944618	-136.9186
122.000000	84.772278	-135.3680
125.000000	84.645393	-134.3108
128.000000	84.509018	-133.0641
132.000000	84.324692	-131.4627
136.000000	84.146965	-129.8569
140.000000	83.975395	-128.2312
145.000000	83.758293	-126.2167
150.000000	83.539345	-123.9910
155.000000	83.342651	-121.8575
160.000000	83.132622	-119.6736
165.000000	82.936401	-117.5567
170.000000	82.733986	-115.3093
175.000000	82.538834	-113.0935
180.000000	82.375732	-110.8277
185.000000	82.178589	-108.4799
190.000000	82.004784	-106.2515
195.000000	81.842148	-103.9456
200.000000	81.661415	-101.5971
206.000000	81.481544	-98.9408
212.000000	81.274345	-96.1012
218.000000	81.097061	-93.3401
224.000000	80.917107	-90.4819
230.000000	80.746521	-87.7964
236.000000	80.568939	-85.0487
243.000000	80.374985	-81.7298
250.000000	80.196884	-78.5288
258.000000	79.980225	-74.7859
265.000000	79.807869	-71.6245
272.000000	79.622063	-68.3370
280.000000	79.432083	-64.5797
290.000000	79.198517	-60.0701
300.000000	79.010071	-55.3267
307.000000	78.826920	-52.2641
315.000000	78.684669	-48.5935
325.000000	78.462967	-43.9926
335.000000	78.272491	-39.4267
345.000000	78.077286	-35.0004
355.000000	77.909584	-30.4621
365.000000	77.741028	-25.9003
375.000000	77.596474	-21.3965
387.000000	77.418922	-16.2769
400.000000	77.241272	-10.6274
412.000000	77.052483	-5.3991
425.000000	76.871857	0.2365
437.000000	76.724915	5.2302
450.000000	76.568192	10.7857
462.000000	76.418671	15.7443
475.000000	76.267372	21.1354
487.000000	76.118591	26.1182
500.000000	75.990265	31.5497
515.000000	75.835144	37.5663
530.000000	75.688362	43.6169
545.000000	75.548050	49.7598
560.000000	75.435486	55.6470
580.000000	75.246597	63.6600
600.000000	75.076836	71.4172
615.000000	74.991440	77.4183
630.000000	74.891670	83.0889
650.000000	74.750710	90.7882
670.000000	74.646393	98.3302
690.000000	74.533134	105.8805
710.000000	74.421425	113.2708
730.000000	74.346207	120.7446
750.000000	74.253998	128.2243
775.000000	74.174812	137.4549
800.000000	74.117615	146.6359
825.000000	74.066345	155.4471
850.000000	73.998703	164.5423
875.000000	73.995758	173.5014
900.000000	74.006981	-177.7065
925.000000	74.077156	-168.8142
950.000000	74.137360	-160.3017
975.000000	74.245529	-151.6309
1000.000000	74.409889	-142.8421
1030.000000	74.542564	-133.4432
1060.000000	74.775139	-124.0442
1090.000000	75.030571	-114.8994
1120.000000	75.306396	-105.8909
1150.000000	75.602158	-97.5620
1180.000000	75.892776	-89.5471
1220.000000	76.279205	-79.3333
1250.000000	76.570786	-72.1535
1280.000000	76.825783	-65.1072
1320.000000	77.160141	-56.0562
1360.000000	77.441284	-47.3363
1400.000000	77.712273	-38.7726
1450.000000	78.001160	-28.3275
1500.000000	78.283340	-18.0367
1550.000000	78.561600	-7.7516
1600.000000	78.839325	2.1053
1650.000000	79.129761	11.8847
1700.000000	79.424370	21.4105
1750.000000	79.729721	30.7933
1800.000000	80.049255	40.0894
1850.000000	80.393074	48.9088
1900.000000	80.754105	57.5924
1950.000000	81.118767	66.0052
2000.000000	81.533813	74.2941
2060.000000	82.016167	83.5184
2120.000000	82.533417	92.4847
2180.000000	83.076981	100.9703
2240.000000	83.644615	108.9604
2300.000000	84.228531	116.4285
2360.000000	84.821022	123.3755
2430.000000	85.537216	130.6470
2500.000000	86.246689	137.1447
2580.000000	87.037186	143.4714
2650.000000	87.689339	147.9976
2720.000000	88.275642	151.6566
2800.000000	88.828316	154.9147
2900.000000	89.309807	157.9589
3000.000000	89.540421	160.5550
3070.000000	89.566078	162.3420
3150.000000	89.503052	164.6982
3250.000000	89.321327	168.2302
3350.000000	89.116234	172.3222
3450.000000	88.928986	176.9077
3550.000000	88.797684	-178.2794
3650.000000	88.747345	-173.4471
3750.000000	88.785225	-168.8358
3870.000000	88.958206	-163.9766
4000.000000	89.293274	-160.0203
4120.000000	89.695908	-158.1399
4250.000000	90.133270	-158.6147
4370.000000	90.389809	-161.7519
4500.000000	90.256989	-167.5458
4620.000000	89.620476	-173.5968
4750.000000	88.431587	-178.9330
4870.000000	87.054184	178.3756
5000.000000	85.490456	177.7297
5150.000000	83.756622	179.2537
5300.000000	82.170288	-177.5555
5450.000000	80.770218	-173.5949
5600.000000	79.523933	-169.0247
5800.000000	78.126579	-162.6042
6000.000000	76.983047	-156.2415
6150.000000	76.305840	-151.7247
6300.000000	75.762596	-147.5497
6500.000000	75.191307	-142.5151
6700.000000	74.806961	-138.5708
6900.000000	74.611618	-135.1896
7100.000000	74.576912	-132.7813
7300.000000	74.715866	-131.2294
7500.000000	75.099907	-130.5544
7750.000000	75.997589	-131.5620
8000.000000	77.345825	-135.2078
8250.000000	79.518585	-143.8961
8500.000000	82.334450	-162.9721
8750.000000	84.237885	158.9587
9000.000000	82.434761	116.6246
9250.000000	79.006454	91.0276
9500.000000	76.080040	75.1421
9750.000000	73.831322	62.7535
10000.000000	72.033386	50.9711
10300.000000	70.198685	37.1018
10600.000000	68.651215	23.1591
10900.000000	67.335075	9.5554
11200.000000	66.300232	-3.0367
11500.000000	65.656143	-15.1146
11800.000000	65.479149	-26.9642
12200.000000	66.147903	-45.1555
12500.000000	67.399780	-62.2340
12800.000000	69.128677	-83.3768
13200.000000	71.637260	-121.2695
13600.000000	73.768852	-167.7178
14000.000000	75.314194	139.8584
14500.000000	76.282082	68.5144
15000.000000	75.913406	-5.3641
15500.000000	74.647469	-74.8742
16000.000000	73.483322	-139.7657
16500.000000	72.857719	156.7012
17000.000000	72.888046	91.2132
17500.000000	73.363937	20.7870
18000.000000	73.740387	-58.0887
18500.000000	73.078674	-142.9080
19000.000000	71.382675	131.9894
19500.000000	68.976067	48.5723
