* Measurement data measured by REW V5.20 Beta 55
* Source: IEC-60711 (USB Sound Device        ), MICROPHONE (Master Volume), R, volume: 0.250
* Format: 512k Log Swept Sine, 1 sweep at -3.0 dBFS with no timing reference
* Dated: Jun 22, 2020 7:44:10 PM
* REW Settings:
*  C-weighting compensation: Off
*  Target level: 75.0 dB
* Note: ; 
* Measurement: Tin T2 Plus - L
* Smoothing: 1/48 octave
* Frequency Step: 1/24 octave
* Start Frequency: 20.600 Hz
*
* Freq(Hz)	SPL(dB)	Phase(degrees)
20.600000	83.516571	-134.4595
21.200001	83.634766	-135.4574
21.799999	83.704407	-136.2120
22.400000	83.749390	-136.8157
23.000000	83.786041	-137.4361
23.600000	83.851089	-138.2641
24.299999	83.950813	-138.7420
25.000000	83.944260	-138.9732
25.799999	83.979187	-139.8524
26.500000	84.043114	-140.2862
27.200001	84.049995	-140.7129
28.000000	84.147408	-141.3044
29.000000	84.295738	-141.8915
30.000000	84.225677	-142.5614
30.700001	84.273125	-142.2281
31.500000	84.287079	-142.4439
32.500000	84.356598	-144.2973
33.500000	84.305214	-144.6127
34.500000	84.409309	-144.8755
35.500000	84.396965	-145.4857
36.500000	84.431458	-145.8279
37.500000	84.469223	-145.9289
38.700001	84.443184	-146.4662
40.000000	84.466408	-146.8266
41.200001	84.505585	-147.2590
42.500000	84.477875	-147.7229
43.700001	84.532089	-147.9079
45.000000	84.510612	-147.9187
46.200001	84.514961	-148.2898
47.500000	84.564407	-148.3665
48.700001	84.571030	-148.4443
50.000000	84.529816	-148.6262
51.500000	84.614174	-149.0433
53.000000	84.624542	-148.9480
54.500000	84.601685	-149.0197
56.000000	84.587845	-149.0042
58.000000	84.592354	-149.2638
60.000000	84.610764	-148.5999
61.500000	84.566826	-149.3032
63.000000	84.575249	-149.1298
65.000000	84.550606	-149.2262
67.000000	84.564217	-149.1937
69.000000	84.555923	-149.1229
71.000000	84.540848	-148.9616
73.000000	84.524918	-147.9633
75.000000	84.507507	-148.3474
77.500000	84.515579	-148.6111
80.000000	84.485168	-148.6358
82.500000	84.451561	-148.6330
85.000000	84.444534	-148.1779
87.500000	84.404243	-147.8455
90.000000	84.458374	-147.3834
92.500000	84.379013	-147.4870
95.000000	84.357483	-147.1714
97.500000	84.330536	-146.7596
100.000000	84.285309	-146.5474
103.000000	84.259155	-146.2594
106.000000	84.229836	-145.8149
109.000000	84.192924	-145.3115
112.000000	84.171021	-144.9867
115.000000	84.121140	-144.5817
118.000000	84.092628	-144.1823
122.000000	84.033356	-143.5442
125.000000	84.007935	-143.0783
128.000000	83.966110	-142.6018
132.000000	83.899567	-141.9902
136.000000	83.860870	-141.2840
140.000000	83.819809	-140.7223
145.000000	83.758102	-139.9317
150.000000	83.683586	-138.9635
155.000000	83.609390	-138.1151
160.000000	83.561172	-137.2525
165.000000	83.495560	-136.3454
170.000000	83.443413	-135.3231
175.000000	83.337463	-134.5243
180.000000	83.282791	-133.3513
185.000000	83.204842	-132.5585
190.000000	83.140396	-131.5690
195.000000	83.081116	-130.6483
200.000000	83.017883	-129.6393
206.000000	82.906815	-128.5276
212.000000	82.845100	-127.1927
218.000000	82.738579	-126.0873
224.000000	82.690979	-124.8452
230.000000	82.599976	-123.6355
236.000000	82.518158	-122.3485
243.000000	82.416069	-120.8176
250.000000	82.328850	-119.4271
258.000000	82.236092	-117.6695
265.000000	82.163414	-116.2540
272.000000	82.072647	-114.6188
280.000000	81.960396	-112.8187
290.000000	81.831459	-110.8090
300.000000	81.733444	-108.7093
307.000000	81.652344	-107.0446
315.000000	81.576134	-105.3282
325.000000	81.454720	-103.1069
335.000000	81.348892	-100.9009
345.000000	81.253464	-98.7503
355.000000	81.139854	-96.4499
365.000000	81.049492	-94.1031
375.000000	80.940323	-91.9081
387.000000	80.821220	-89.1629
400.000000	80.704590	-86.2993
412.000000	80.603668	-83.6647
425.000000	80.500092	-80.6995
437.000000	80.393761	-78.1225
450.000000	80.291870	-75.2705
462.000000	80.187492	-72.4990
475.000000	80.110519	-69.7216
487.000000	80.009880	-67.1018
500.000000	79.933815	-64.1185
515.000000	79.859550	-60.8192
530.000000	79.758972	-57.6620
545.000000	79.639687	-54.3794
560.000000	79.560417	-51.0616
580.000000	79.449715	-46.6801
600.000000	79.320358	-42.1970
615.000000	79.223045	-38.6663
630.000000	79.171150	-34.6921
650.000000	79.268341	-30.3885
670.000000	79.226440	-26.7086
690.000000	79.160698	-22.8224
710.000000	79.099266	-18.6684
730.000000	79.022552	-14.4386
750.000000	78.963425	-10.2684
775.000000	78.940979	-4.8650
800.000000	78.863083	0.2465
825.000000	78.852028	5.6942
850.000000	78.865555	10.9554
875.000000	78.884399	16.1590
900.000000	78.912781	21.6486
925.000000	78.973831	27.1280
950.000000	79.065582	32.3654
975.000000	79.183525	37.6966
1000.000000	79.415619	42.6409
1030.000000	79.586914	49.2140
1060.000000	79.856354	55.1579
1090.000000	80.182724	60.9432
1120.000000	80.573318	66.3642
1150.000000	80.979073	71.5101
1180.000000	81.390038	76.0230
1220.000000	82.010437	81.6740
1250.000000	82.455742	85.4409
1280.000000	82.909233	88.7466
1320.000000	83.488670	92.3811
1360.000000	84.006035	95.3698
1400.000000	84.479683	97.9153
1450.000000	84.947418	100.6663
1500.000000	85.294731	103.0476
1550.000000	85.555756	105.4594
1600.000000	85.745178	107.9778
1650.000000	85.904213	110.6233
1700.000000	86.014198	113.2212
1750.000000	86.117599	115.9373
1800.000000	86.201950	118.6559
1850.000000	86.283630	121.3284
1900.000000	86.356018	124.1094
1950.000000	86.416885	126.6080
2000.000000	86.442741	129.1099
2060.000000	86.518845	132.1505
2120.000000	86.546989	134.9832
2180.000000	86.564934	137.7861
2240.000000	86.558792	140.4286
2300.000000	86.546371	143.1143
2360.000000	86.519539	145.6584
2430.000000	86.467300	148.6149
2500.000000	86.375267	151.5074
2580.000000	86.274635	154.9137
2650.000000	86.170876	157.8274
2720.000000	86.054405	160.8186
2800.000000	85.909500	164.1460
2900.000000	85.735199	168.5056
3000.000000	85.557098	172.6240
3070.000000	85.427780	175.8047
3150.000000	85.301697	179.2698
3250.000000	85.140945	-176.4251
3350.000000	85.012772	-172.1405
3450.000000	84.916939	-167.9424
3550.000000	84.830643	-163.7016
3650.000000	84.769310	-159.5993
3750.000000	84.732681	-155.6076
3870.000000	84.730675	-150.9957
4000.000000	84.762794	-146.2027
4120.000000	84.872810	-141.8875
4250.000000	85.023788	-137.4502
4370.000000	85.235771	-133.6302
4500.000000	85.535210	-129.7847
4620.000000	85.913223	-126.5456
4750.000000	86.462975	-123.6395
4870.000000	87.131424	-121.9234
5000.000000	88.007019	-121.9192
5150.000000	89.061256	-126.0721
5300.000000	89.629959	-134.7133
5450.000000	89.308800	-144.1714
5600.000000	88.428055	-150.4885
5800.000000	87.123192	-153.9708
6000.000000	86.086067	-154.3766
6150.000000	85.489807	-153.8181
6300.000000	85.057587	-153.1330
6500.000000	84.660690	-152.1150
6700.000000	84.479721	-151.7131
6900.000000	84.504883	-151.9531
7100.000000	84.652054	-153.4106
7300.000000	85.012138	-155.7215
7500.000000	85.512009	-160.4846
7750.000000	86.150139	-170.2432
8000.000000	86.463333	175.2838
8250.000000	86.003395	158.0164
8500.000000	84.718124	142.0956
8750.000000	83.017487	129.9799
9000.000000	81.321503	121.2306
9250.000000	79.806717	114.9391
9500.000000	78.533691	109.8409
9750.000000	77.541122	105.1485
10000.000000	76.804916	100.5876
10300.000000	76.218399	94.6161
10600.000000	75.909431	87.4767
10900.000000	75.782173	77.9806
11200.000000	75.666946	65.9889
11500.000000	75.178932	52.2348
11800.000000	74.431419	42.2540
12200.000000	74.896118	30.1648
12500.000000	75.539955	12.0158
12800.000000	75.326874	-8.9217
13200.000000	74.517349	-33.4380
13600.000000	73.880417	-56.5126
14000.000000	73.583649	-79.4171
14500.000000	73.888847	-113.9398
15000.000000	73.758453	-156.1623
15500.000000	72.938545	157.3030
16000.000000	70.764984	107.7714
16500.000000	67.511520	64.5446
17000.000000	64.144852	27.9257
17500.000000	60.953712	-4.7346
18000.000000	58.520077	-32.7418
18500.000000	56.118671	-99.4566
19000.000000	54.185337	103.1443
19500.000000	52.109619	108.9390
