* Measurement data measured by REW V5.20 Beta 56
* Source: IEC-60711 (USB Sound Device        ), MICROPHONE (Master Volume), R, volume: 0.530
* Format: 512k Log Swept Sine, 1 sweep at -3.0 dBFS with no timing reference
* Dated: Aug 2, 2020 5:57:13 PM
* REW Settings:
*  C-weighting compensation: Off
*  Target level: 75.0 dB
* Note: ; 
* Measurement: Mangird Tea - R
* Smoothing: 1/48 octave
* Frequency Step: 1/24 octave
* Start Frequency: 20.600 Hz
*
* Freq(Hz)	SPL(dB)	Phase(degrees)
20.600000	96.214333	170.3692
21.200001	96.138687	170.2562
21.799999	96.064377	170.0636
22.400000	96.012589	169.7941
23.000000	95.958778	169.7388
23.600000	95.876427	169.7054
24.299999	95.803200	169.4241
25.000000	95.756836	169.1344
25.799999	95.679085	168.8701
26.500000	95.592819	168.7299
27.200001	95.513298	168.6746
28.000000	95.451889	168.6263
29.000000	95.379677	168.3923
30.000000	95.282158	168.1722
30.700001	95.197906	167.9729
31.500000	95.126778	167.8144
32.500000	95.056389	167.7014
33.500000	94.952171	167.4893
34.500000	94.876953	167.3939
35.500000	94.790131	167.3717
36.500000	94.720039	167.2993
37.500000	94.618408	167.1231
38.700001	94.537071	166.9326
40.000000	94.426178	166.9272
41.200001	94.324677	166.7467
42.500000	94.234245	166.6857
43.700001	94.134987	166.7532
45.000000	94.045364	166.6371
46.200001	93.949478	166.5727
47.500000	93.855476	166.5435
48.700001	93.765938	166.4865
50.000000	93.660278	166.5247
51.500000	93.571152	166.5644
53.000000	93.450989	166.6178
54.500000	93.354919	166.6624
56.000000	93.255478	166.6523
58.000000	93.133255	166.6319
60.000000	92.957687	166.5824
61.500000	92.894798	166.9241
63.000000	92.810150	167.0093
65.000000	92.681000	167.0462
67.000000	92.560669	167.2951
69.000000	92.435356	167.3443
71.000000	92.315613	167.5286
73.000000	92.216301	167.8102
75.000000	92.105911	168.0347
77.500000	91.946098	168.2378
80.000000	91.793533	168.5598
82.500000	91.684097	168.7862
85.000000	91.559921	169.1359
87.500000	91.418373	169.4819
90.000000	91.326218	169.7733
92.500000	91.192223	170.2127
95.000000	91.057045	170.4866
97.500000	90.947685	170.7187
100.000000	90.848022	171.3091
103.000000	90.705887	171.7847
106.000000	90.571205	172.1598
109.000000	90.447815	172.8082
112.000000	90.352394	173.4757
115.000000	90.229660	173.8130
118.000000	90.115982	174.3508
122.000000	89.972702	175.0983
125.000000	89.866135	175.7389
128.000000	89.785072	176.1888
132.000000	89.641510	177.0421
136.000000	89.504959	177.8602
140.000000	89.412735	178.5786
145.000000	89.252541	179.4706
150.000000	89.136765	-179.6227
155.000000	89.011032	-178.4488
160.000000	88.894989	-177.5457
165.000000	88.767891	-176.3704
170.000000	88.667816	-175.2722
175.000000	88.558502	-174.6246
180.000000	88.472778	-173.4066
185.000000	88.383125	-172.4492
190.000000	88.303101	-171.3956
195.000000	88.218834	-170.3934
200.000000	88.128448	-169.3981
206.000000	88.070007	-168.2673
212.000000	87.995552	-167.1992
218.000000	87.913635	-165.9483
224.000000	87.851845	-164.7778
230.000000	87.801041	-163.5595
236.000000	87.751282	-162.3872
243.000000	87.678772	-161.0251
250.000000	87.650864	-159.7992
258.000000	87.578392	-158.1257
265.000000	87.554932	-156.9031
272.000000	87.530693	-155.5760
280.000000	87.473625	-154.1153
290.000000	87.454285	-152.3510
300.000000	87.420929	-150.5363
307.000000	87.407242	-149.3755
315.000000	87.404449	-148.0694
325.000000	87.386856	-146.2059
335.000000	87.415596	-144.5615
345.000000	87.391327	-142.8807
355.000000	87.414841	-141.3206
365.000000	87.401909	-139.5585
375.000000	87.431274	-137.9807
387.000000	87.454521	-136.0823
400.000000	87.497528	-134.0695
412.000000	87.512482	-132.1464
425.000000	87.556427	-130.1893
437.000000	87.587982	-128.4384
450.000000	87.629868	-126.3585
462.000000	87.670990	-124.6260
475.000000	87.705872	-122.5864
487.000000	87.747559	-120.9464
500.000000	87.794365	-119.0137
515.000000	87.851624	-116.8197
530.000000	87.913040	-114.6729
545.000000	87.943321	-112.5275
560.000000	87.994431	-110.3958
580.000000	88.065063	-107.4730
600.000000	88.125702	-104.6761
615.000000	88.168785	-102.3875
630.000000	88.210571	-100.1269
650.000000	88.271271	-97.3050
670.000000	88.350670	-94.3466
690.000000	88.388107	-91.3945
710.000000	88.444153	-88.4950
730.000000	88.529434	-85.4339
750.000000	88.586441	-82.5046
775.000000	88.663940	-78.7290
800.000000	88.754036	-74.9781
825.000000	88.812538	-71.2044
850.000000	88.909370	-67.3060
875.000000	88.993095	-63.5516
900.000000	89.108772	-59.7853
925.000000	89.229019	-55.9487
950.000000	89.333511	-52.2055
975.000000	89.469078	-48.5228
1000.000000	89.653671	-44.6418
1030.000000	89.784279	-40.7423
1060.000000	89.949554	-36.5718
1090.000000	90.133759	-32.6470
1120.000000	90.286064	-28.7841
1150.000000	90.445297	-25.1086
1180.000000	90.586182	-21.5459
1220.000000	90.735107	-16.8497
1250.000000	90.836746	-13.3350
1280.000000	90.921959	-9.9023
1320.000000	91.001259	-5.2916
1360.000000	91.069550	-0.6206
1400.000000	91.136063	4.0549
1450.000000	91.210052	9.9976
1500.000000	91.274551	15.9767
1550.000000	91.337425	22.1720
1600.000000	91.419182	28.2116
1650.000000	91.500458	34.0865
1700.000000	91.600433	40.1415
1750.000000	91.718163	46.0319
1800.000000	91.838890	51.8464
1850.000000	91.984848	57.4725
1900.000000	92.118553	62.9585
1950.000000	92.273956	68.2615
2000.000000	92.427048	73.2075
2060.000000	92.583420	79.2026
2120.000000	92.734406	84.8005
2180.000000	92.881042	90.0416
2240.000000	92.990623	95.0909
2300.000000	93.073730	99.9242
2360.000000	93.108604	104.5721
2430.000000	93.103195	109.8190
2500.000000	93.044220	115.0823
2580.000000	92.909897	121.0867
2650.000000	92.762863	126.3948
2720.000000	92.583992	131.8828
2800.000000	92.369720	138.4252
2900.000000	92.081635	146.8243
3000.000000	91.839127	155.4509
3070.000000	91.656441	161.5797
3150.000000	91.502625	168.6472
3250.000000	91.341843	177.3109
3350.000000	91.243507	-174.0645
3450.000000	91.186256	-165.8931
3550.000000	91.156036	-158.2248
3650.000000	91.137794	-151.1136
3750.000000	91.109100	-144.8525
3870.000000	90.909042	-138.2700
4000.000000	90.408203	-131.5470
4120.000000	89.767029	-122.8597
4250.000000	89.542061	-112.5617
4370.000000	89.431854	-106.5281
4500.000000	88.789612	-101.5991
4620.000000	87.897881	-95.7065
4750.000000	86.756233	-87.6045
4870.000000	85.647408	-78.6226
5000.000000	84.471291	-67.1017
5150.000000	83.240929	-51.9843
5300.000000	82.176193	-34.8065
5450.000000	81.410309	-16.1140
5600.000000	81.015236	4.2265
5800.000000	81.439270	32.5316
6000.000000	83.222610	58.2214
6150.000000	85.412109	71.9644
6300.000000	87.837723	76.4391
6500.000000	89.360680	68.0810
6700.000000	88.109642	63.0298
6900.000000	86.322197	69.9308
7100.000000	85.056229	82.8975
7300.000000	84.372826	97.7762
7500.000000	84.136536	113.2563
7750.000000	84.497314	132.1250
8000.000000	85.421265	148.3757
8250.000000	86.920357	161.5920
8500.000000	88.945442	168.8816
8750.000000	90.916954	166.1763
9000.000000	91.338562	154.3069
9250.000000	89.776962	146.1979
9500.000000	87.576782	148.7706
9750.000000	86.073257	160.2054
10000.000000	86.204971	169.7936
10300.000000	85.949821	169.9561
10600.000000	84.260239	171.7004
10900.000000	82.293137	-177.5735
11200.000000	81.275299	-161.7397
11500.000000	81.217468	-145.7485
11800.000000	82.067932	-132.5793
12200.000000	83.897171	-123.8352
12500.000000	85.215111	-124.8008
12800.000000	85.866943	-130.7522
13200.000000	85.578682	-138.9924
13600.000000	84.902870	-143.4502
14000.000000	84.716667	-147.6801
14500.000000	84.504585	-161.1754
15000.000000	82.198868	179.6782
15500.000000	78.525360	174.1050
16000.000000	75.940025	179.2399
16500.000000	74.582565	-178.1835
17000.000000	73.063225	-178.4706
17500.000000	71.144844	-172.0208
18000.000000	71.278664	-160.4259
18500.000000	72.933273	-161.1702
19000.000000	74.744194	-175.5442
19500.000000	75.342789	156.5201
