* Measurement data measured by REW V5.20 Beta 21
* Source: Input device not selected, no input selected, R, volume: 0.000
* Format: 1M Log Swept Sine, 1 sweep at -12.0 dBFS  With no timing reference
* Dated: Aug 24, 2019 2:52:34 PM
* REW Settings:
*  C-weighting compensation: Off
*  Target level: 75.0 dB
* Note: ; 
* Measurement: 64 Audio Trio - L
* Smoothing: 1/48 octave
* Frequency Step: 1/24 octave
* Start Frequency: 20.000 Hz
*
* Freq(Hz)	SPL(dB)	Phase(degrees)
20.000000	60.635025	82.9908
20.600000	60.928162	81.1616
21.200001	61.182266	79.1901
21.799999	61.372940	77.3453
22.400000	61.532730	75.7270
23.000000	61.681911	74.1520
23.600000	61.805695	72.5038
24.299999	61.914055	70.6082
25.000000	62.013393	68.8047
25.799999	62.137470	66.7192
26.500000	62.246216	64.8453
27.200001	62.350037	63.0149
28.000000	62.467541	61.0565
29.000000	62.614788	58.8069
30.000000	62.757767	56.7272
30.700001	62.850433	55.2885
31.500000	62.935947	53.6382
32.500000	63.018200	51.6304
33.500000	63.085468	49.6286
34.500000	63.140446	47.6768
35.500000	63.198566	45.7911
36.500000	63.254471	43.9298
37.500000	63.299026	42.1621
38.700001	63.347141	40.1781
40.000000	63.382507	38.1029
41.200001	63.405312	36.2888
42.500000	63.425575	34.3711
43.700001	63.440975	32.6322
45.000000	63.447296	30.8324
46.200001	63.453323	29.2550
47.500000	63.452610	27.5766
48.700001	63.446449	26.0909
50.000000	63.436756	24.5304
51.500000	63.426064	22.7988
53.000000	63.404171	21.1462
54.500000	63.383934	19.5825
56.000000	63.353924	18.0835
58.000000	63.310226	16.0290
60.000000	63.254089	14.1529
61.500000	63.212334	12.8450
63.000000	63.172607	11.5327
65.000000	63.107224	9.9041
67.000000	63.046951	8.3350
69.000000	62.983780	6.8480
71.000000	62.920044	5.4325
73.000000	62.853645	4.1062
75.000000	62.783535	2.8213
77.500000	62.700443	1.3124
80.000000	62.610378	-0.1230
82.500000	62.525490	-1.4622
85.000000	62.446171	-2.7063
87.500000	62.354683	-3.9338
90.000000	62.266937	-5.0592
92.500000	62.178635	-6.1106
95.000000	62.092575	-7.1276
97.500000	62.003616	-8.0858
100.000000	61.920273	-8.9647
103.000000	61.816704	-9.9894
106.000000	61.719208	-10.9311
109.000000	61.620644	-11.8375
112.000000	61.521370	-12.6515
115.000000	61.427395	-13.4104
118.000000	61.334877	-14.1621
122.000000	61.220173	-15.0594
125.000000	61.119720	-15.7040
128.000000	61.030846	-16.2486
132.000000	60.914124	-16.9880
136.000000	60.800690	-17.6706
140.000000	60.689491	-18.2558
145.000000	60.551857	-18.9571
150.000000	60.422859	-19.5443
155.000000	60.292603	-20.0951
160.000000	60.164341	-20.5566
165.000000	60.041298	-21.0027
170.000000	59.914253	-21.3214
175.000000	59.780369	-21.5964
180.000000	59.649780	-21.7332
185.000000	59.510620	-21.6676
190.000000	59.405090	-21.1244
195.000000	59.416073	-20.5524
200.000000	59.473354	-20.8012
206.000000	59.438885	-21.5343
212.000000	59.349606	-22.0633
218.000000	59.251873	-22.3191
224.000000	59.162365	-22.5232
230.000000	59.073254	-22.6188
236.000000	58.993851	-22.6539
243.000000	58.906494	-22.6742
250.000000	58.828354	-22.6052
258.000000	58.753994	-22.5666
265.000000	58.688408	-22.4715
272.000000	58.628429	-22.3761
280.000000	58.569721	-22.2446
290.000000	58.502068	-22.0240
300.000000	58.450298	-21.7924
307.000000	58.418823	-21.6359
315.000000	58.393196	-21.4558
325.000000	58.362450	-21.2141
335.000000	58.340477	-20.9769
345.000000	58.325687	-20.7345
355.000000	58.318024	-20.4920
365.000000	58.321682	-20.2549
375.000000	58.328190	-20.0258
387.000000	58.350243	-19.7796
400.000000	58.386547	-19.5044
412.000000	58.425816	-19.2989
425.000000	58.484020	-19.1375
437.000000	58.538609	-18.9736
450.000000	58.608124	-18.8969
462.000000	58.684261	-18.8660
475.000000	58.771111	-18.9002
487.000000	58.851112	-18.9805
500.000000	58.944595	-19.1193
515.000000	59.059006	-19.4071
530.000000	59.174324	-19.7764
545.000000	59.288631	-20.2578
560.000000	59.403034	-20.8767
580.000000	59.536602	-21.9242
600.000000	59.643242	-22.9612
615.000000	59.727104	-23.8794
630.000000	59.784931	-24.8832
650.000000	59.845108	-26.2397
670.000000	59.888878	-27.7816
690.000000	59.882324	-29.4164
710.000000	59.827568	-30.9895
730.000000	59.733170	-32.4508
750.000000	59.606300	-33.7403
775.000000	59.409996	-35.0440
800.000000	59.175598	-35.9300
825.000000	58.927383	-36.3460
850.000000	58.678467	-36.2732
875.000000	58.443222	-35.7401
900.000000	58.236694	-34.7717
925.000000	58.066708	-33.4358
950.000000	57.944981	-31.7900
975.000000	57.878613	-29.9179
1000.000000	57.861423	-27.8898
1030.000000	57.932365	-25.3450
1060.000000	58.081047	-22.8466
1090.000000	58.308487	-20.5087
1120.000000	58.602242	-18.4413
1150.000000	58.946663	-16.7417
1180.000000	59.314976	-15.4264
1220.000000	59.837990	-14.3415
1250.000000	60.219131	-13.9748
1280.000000	60.588467	-13.9572
1320.000000	61.037289	-14.3413
1360.000000	61.430393	-15.0731
1400.000000	61.768394	-16.0444
1450.000000	62.118492	-17.4349
1500.000000	62.394642	-18.9132
1550.000000	62.614380	-20.4081
1600.000000	62.787327	-21.8704
1650.000000	62.927620	-23.2746
1700.000000	63.047977	-24.6255
1750.000000	63.149345	-25.9320
1800.000000	63.237804	-27.1964
1850.000000	63.320953	-28.4410
1900.000000	63.394867	-29.6844
1950.000000	63.459541	-30.9638
2000.000000	63.515491	-32.2456
2060.000000	63.565430	-33.7341
2120.000000	63.599186	-35.1637
2180.000000	63.603764	-36.4895
2240.000000	63.604042	-37.7294
2300.000000	63.584438	-38.8433
2360.000000	63.560181	-39.8622
2430.000000	63.526863	-41.0542
2500.000000	63.457146	-42.2204
2580.000000	63.347282	-43.5614
2650.000000	63.190418	-44.5727
2720.000000	63.010918	-45.2363
2800.000000	62.796288	-45.6843
2900.000000	62.527374	-45.9877
3000.000000	62.255676	-46.0797
3070.000000	62.058716	-45.9698
3150.000000	61.857521	-45.6918
3250.000000	61.614624	-45.0784
3350.000000	61.394768	-44.1848
3450.000000	61.219971	-43.0450
3550.000000	61.076015	-41.7229
3650.000000	61.006950	-40.4877
3750.000000	60.954567	-39.5949
3870.000000	60.821968	-39.2293
4000.000000	60.371590	-38.7906
4120.000000	59.724060	-35.5138
4250.000000	59.382957	-28.0779
4370.000000	59.739643	-21.1201
4500.000000	60.489025	-17.2360
4620.000000	61.150463	-16.5797
4750.000000	61.756363	-18.6945
4870.000000	62.052353	-24.1254
5000.000000	61.576042	-32.5836
5150.000000	59.886345	-36.4827
5300.000000	58.235092	-29.4684
5450.000000	57.595490	-17.7485
5600.000000	57.795795	-7.6441
5800.000000	58.488708	1.1938
6000.000000	59.125595	6.7786
6150.000000	59.517555	10.2803
6300.000000	59.862953	13.7747
6500.000000	60.356327	18.7156
6700.000000	60.957993	23.9593
6900.000000	61.786842	29.0158
7100.000000	62.891472	32.9513
7300.000000	64.273918	34.2052
7500.000000	65.805168	29.9510
7750.000000	66.616997	13.5374
8000.000000	65.283997	-5.3067
8250.000000	62.791145	-10.1626
8500.000000	60.644798	-6.4229
8750.000000	58.878967	0.8576
9000.000000	57.350994	11.2441
9250.000000	56.248043	24.7770
9500.000000	55.711315	39.3521
9750.000000	55.595623	53.8119
10000.000000	55.830486	67.6294
10300.000000	56.467384	82.9003
10600.000000	57.459328	96.2200
10900.000000	58.766399	105.3468
11200.000000	59.820923	107.4242
11500.000000	59.647171	104.9862
11800.000000	58.106308	107.1334
12200.000000	55.588276	123.4870
12500.000000	54.447712	141.7979
12800.000000	53.987785	160.4595
13200.000000	53.989895	-177.4481
13600.000000	54.025822	-159.3834
14000.000000	53.594669	-142.5441
14500.000000	52.582466	-117.5519
15000.000000	51.764946	-84.7428
15500.000000	53.392124	-43.0458
16000.000000	56.178959	-24.9702
16500.000000	57.776657	-1.1986
17000.000000	61.247604	19.8572
17500.000000	65.567810	19.3592
18000.000000	66.468605	-10.8372
18500.000000	63.362335	-39.2206
19000.000000	56.581951	-50.5404
19500.000000	48.487968	-35.1808
