* Measurement data measured by REW V5.20.13
* Source: Headset (2- USB-C to 3.5mm Headphone Jack Adapter), MICROPHONE (Master Volume), L, volume: 0.250
* Format: 256k Log Swept Sine, 1 sweep at -5.0 dBFS with no timing reference
* Dated: Dec 17, 2022 12:59:33 PM
* REW Settings:
*  C-weighting compensation: Off
*  Target level: 75.0 dB
* Note: ; 
* Measurement: Top R
* Smoothing: 1/12 octave
* Frequency Step: 1/24 octave
* Start Frequency: 20.000 Hz
*
* Freq(Hz)	SPL(dB)	Phase(degrees)
20.000000	92.335	-116.8064
20.600000	92.470	-118.6789
21.200001	92.579	-120.4777
21.799999	92.669	-122.1967
22.400000	92.746	-123.8632
23.000000	92.811	-125.4975
23.600000	92.863	-127.0883
24.299999	92.911	-128.8718
25.000000	92.951	-130.5881
25.799999	92.984	-132.4813
26.500000	93.004	-134.0623
27.200001	93.018	-135.5631
28.000000	93.031	-137.1881
29.000000	93.049	-139.1341
30.000000	93.065	-141.0702
30.700001	93.069	-142.4068
31.500000	93.067	-143.8694
32.500000	93.066	-145.6070
33.500000	93.069	-147.3106
34.500000	93.063	-148.9866
35.500000	93.049	-150.5525
36.500000	93.038	-152.0076
37.500000	93.031	-153.4294
38.700001	93.018	-155.1049
40.000000	92.996	-156.8417
41.200001	92.973	-158.3749
42.500000	92.947	-159.9850
43.700001	92.920	-161.4314
45.000000	92.889	-162.9295
46.200001	92.860	-164.2645
47.500000	92.823	-165.6516
48.700001	92.790	-166.8566
50.000000	92.753	-168.1635
51.500000	92.702	-169.6234
53.000000	92.651	-171.0300
54.500000	92.600	-172.4024
56.000000	92.549	-173.7190
58.000000	92.477	-175.3631
60.000000	92.410	-176.8809
61.500000	92.353	-178.0374
63.000000	92.288	-179.1422
65.000000	92.204	179.4305
67.000000	92.118	178.0406
69.000000	92.033	176.7285
71.000000	91.945	175.4641
73.000000	91.852	174.2581
75.000000	91.758	173.1005
77.500000	91.639	171.7164
80.000000	91.520	170.3919
82.500000	91.397	169.1267
85.000000	91.270	167.9319
87.500000	91.141	166.8022
90.000000	91.010	165.7134
92.500000	90.879	164.6858
95.000000	90.749	163.7115
97.500000	90.616	162.7900
100.000000	90.480	161.9082
103.000000	90.318	160.9015
106.000000	90.161	159.9452
109.000000	90.004	159.0610
112.000000	89.844	158.2631
115.000000	89.686	157.5114
118.000000	89.529	156.7986
122.000000	89.317	155.9424
125.000000	89.155	155.3777
128.000000	88.995	154.8550
132.000000	88.784	154.2371
136.000000	88.574	153.6899
140.000000	88.363	153.2189
145.000000	88.105	152.7576
150.000000	87.851	152.4070
155.000000	87.599	152.1634
160.000000	87.354	152.0129
165.000000	87.115	151.9651
170.000000	86.881	152.0021
175.000000	86.653	152.1130
180.000000	86.433	152.2840
185.000000	86.222	152.5739
190.000000	86.020	152.9261
195.000000	85.826	153.3252
200.000000	85.640	153.7763
206.000000	85.428	154.3820
212.000000	85.230	155.0474
218.000000	85.043	155.7614
224.000000	84.869	156.5196
230.000000	84.707	157.3112
236.000000	84.557	158.1247
243.000000	84.395	159.0850
250.000000	84.251	160.0523
258.000000	84.102	161.1881
265.000000	83.986	162.1949
272.000000	83.882	163.1909
280.000000	83.777	164.3028
290.000000	83.665	165.6569
300.000000	83.574	166.9704
307.000000	83.514	167.8611
315.000000	83.453	168.8517
325.000000	83.390	170.0421
335.000000	83.338	171.1832
345.000000	83.294	172.2711
355.000000	83.256	173.3052
365.000000	83.226	174.2918
375.000000	83.199	175.2347
387.000000	83.170	176.3199
400.000000	83.143	177.4343
412.000000	83.121	178.4149
425.000000	83.097	179.4400
437.000000	83.073	-179.6331
450.000000	83.047	-178.6473
462.000000	83.021	-177.7211
475.000000	82.998	-176.6378
487.000000	83.002	-175.6333
500.000000	83.015	-174.7817
515.000000	82.989	-173.8444
530.000000	82.959	-172.6436
545.000000	82.963	-171.3836
560.000000	82.991	-170.2561
580.000000	83.021	-168.9294
600.000000	83.035	-167.6338
615.000000	83.044	-166.6173
630.000000	83.057	-165.5558
650.000000	83.085	-164.0675
670.000000	83.134	-162.5280
690.000000	83.212	-160.9863
710.000000	83.324	-159.5147
730.000000	83.466	-158.2284
750.000000	83.624	-157.2360
775.000000	83.804	-156.4393
800.000000	83.925	-155.9357
825.000000	83.987	-155.3963
850.000000	84.015	-154.6177
875.000000	84.041	-153.5744
900.000000	84.083	-152.3443
925.000000	84.150	-151.0212
950.000000	84.244	-149.6718
975.000000	84.362	-148.3551
1000.000000	84.501	-147.1154
1030.000000	84.689	-145.7645
1060.000000	84.891	-144.5814
1090.000000	85.102	-143.5818
1120.000000	85.313	-142.7585
1150.000000	85.520	-142.0901
1180.000000	85.718	-141.5499
1220.000000	85.965	-140.9811
1250.000000	86.136	-140.6323
1280.000000	86.296	-140.3248
1320.000000	86.492	-139.9475
1360.000000	86.675	-139.5754
1400.000000	86.849	-139.1905
1450.000000	87.057	-138.6815
1500.000000	87.264	-138.1358
1550.000000	87.474	-137.5667
1600.000000	87.693	-136.9958
1650.000000	87.922	-136.4466
1700.000000	88.164	-135.9378
1750.000000	88.419	-135.4952
1800.000000	88.688	-135.1408
1850.000000	88.970	-134.8973
1900.000000	89.263	-134.7905
1950.000000	89.567	-134.8417
2000.000000	89.878	-135.0709
2060.000000	90.257	-135.6060
2120.000000	90.634	-136.4538
2180.000000	91.003	-137.6347
2240.000000	91.352	-139.1530
2300.000000	91.671	-140.9994
2360.000000	91.949	-143.1401
2430.000000	92.207	-145.9326
2500.000000	92.386	-148.9177
2580.000000	92.487	-152.3737
2650.000000	92.492	-155.2797
2720.000000	92.431	-157.9645
2800.000000	92.300	-160.6865
2900.000000	92.069	-163.5249
3000.000000	91.784	-165.7063
3070.000000	91.565	-166.7855
3150.000000	91.319	-167.5258
3250.000000	91.059	-167.8198
3350.000000	90.885	-167.6545
3450.000000	90.812	-167.3098
3550.000000	90.842	-167.0772
3650.000000	90.957	-167.2077
3750.000000	91.128	-167.8725
3870.000000	91.363	-169.4880
4000.000000	91.595	-172.2479
4120.000000	91.736	-175.6032
4250.000000	91.765	-179.8380
4370.000000	91.654	176.0536
4500.000000	91.393	171.8258
4620.000000	91.053	168.4094
4750.000000	90.621	165.3445
4870.000000	90.192	163.1118
5000.000000	89.717	161.3365
5150.000000	89.190	160.0945
5300.000000	88.722	159.5977
5450.000000	88.346	159.6152
5600.000000	88.083	159.8364
5800.000000	87.890	159.8093
6000.000000	87.783	158.6852
6150.000000	87.649	156.9374
6300.000000	87.376	154.7008
6500.000000	86.724	152.0436
6700.000000	85.793	151.2208
6900.000000	84.774	153.0014
7100.000000	83.872	157.0755
7300.000000	83.222	162.4678
7500.000000	82.844	168.1833
7750.000000	82.649	174.5599
8000.000000	82.539	-179.8338
8250.000000	82.613	-174.7327
8500.000000	82.695	-171.6046
8750.000000	82.564	-169.2432
9000.000000	82.253	-166.2358
9250.000000	81.891	-161.8513
9500.000000	81.646	-155.9563
9750.000000	81.692	-148.9950
10000.000000	82.171	-141.9389
10300.000000	83.346	-135.4306
10600.000000	84.871	-133.5983
10900.000000	86.189	-137.7143
11200.000000	86.837	-145.9973
11500.000000	86.767	-154.4004
11800.000000	86.330	-160.5834
12200.000000	85.712	-167.1704
12500.000000	85.192	-172.5411
12800.000000	84.534	-177.9843
13200.000000	83.637	174.6013
13600.000000	82.777	164.1777
14000.000000	81.440	150.7893
14500.000000	78.955	135.6802
15000.000000	76.094	125.0184
15500.000000	73.546	121.1445
16000.000000	73.268	120.3559
16500.000000	75.211	103.6826
17000.000000	75.744	64.2100
17500.000000	73.205	26.9791
18000.000000	70.020	4.6099
18500.000000	69.432	-29.7006
19000.000000	69.270	-91.1810
19500.000000	67.522	-169.4390
