* Measurement data measured by REW V5.20
* Source: Headset (USB-C to 3.5mm Headphone Jack Adapter), MICROPHONE (Master Volume), R, volume: 0.260
* Format: 512k Log Swept Sine, 1 sweep at 0.0 dBFS with no timing reference
* Dated: Apr 7, 2022 2:05:32 PM
* REW Settings:
*  C-weighting compensation: Off
*  Target level: 75.0 dB
* Note: ; 
* Measurement: Triton R
* Smoothing: 1/48 octave
* Frequency Step: 1/24 octave
* Start Frequency: 20.600 Hz
*
* Freq(Hz)	SPL(dB)	Phase(degrees)
20.600000	82.847832	-149.8892
21.200001	82.894234	-151.2614
21.799999	82.956848	-152.6271
22.400000	83.015808	-153.9666
23.000000	83.041786	-155.5432
23.600000	83.064392	-157.0836
24.299999	83.029900	-158.3411
25.000000	82.971107	-159.8861
25.799999	83.012772	-161.7950
26.500000	82.942322	-163.0750
27.200001	82.854263	-164.4955
28.000000	82.889778	-165.7107
29.000000	82.825050	-167.5132
30.000000	82.757240	-169.2821
30.700001	82.731071	-170.3809
31.500000	82.718056	-171.9035
32.500000	82.697617	-173.4058
33.500000	82.667702	-175.0817
34.500000	82.589409	-176.4647
35.500000	82.547318	-177.9470
36.500000	82.497742	-179.2690
37.500000	82.453682	179.2459
38.700001	82.408600	177.7166
40.000000	82.318741	176.1394
41.200001	82.278091	174.6197
42.500000	82.152802	172.9056
43.700001	82.111633	171.5855
45.000000	82.062630	170.2618
46.200001	82.003517	168.7896
47.500000	81.909180	167.3600
48.700001	81.869278	166.1921
50.000000	81.788208	164.9305
51.500000	81.697250	163.5905
53.000000	81.622368	162.1298
54.500000	81.546089	160.8284
56.000000	81.460655	159.4860
58.000000	81.363373	157.8085
60.000000	81.302086	155.9710
61.500000	81.173782	155.0047
63.000000	81.113792	153.9398
65.000000	81.014397	152.3904
67.000000	80.906952	151.0298
69.000000	80.810585	149.6677
71.000000	80.719612	148.3168
73.000000	80.620033	147.0700
75.000000	80.524048	145.7957
77.500000	80.406456	144.2980
80.000000	80.300575	142.8634
82.500000	80.188019	141.5486
85.000000	80.080139	140.1934
87.500000	79.974030	138.8719
90.000000	79.922173	138.1737
92.500000	79.766960	136.4256
95.000000	79.660873	135.2633
97.500000	79.578613	134.0721
100.000000	79.483795	133.0757
103.000000	79.370522	131.7679
106.000000	79.265541	130.4891
109.000000	79.170074	129.3310
112.000000	79.092209	128.0811
115.000000	78.989861	126.8024
118.000000	78.899727	125.7237
122.000000	78.792709	124.2590
125.000000	78.713249	123.2069
128.000000	78.637207	122.1217
132.000000	78.530266	120.7399
136.000000	78.437347	119.4990
140.000000	78.339310	118.1718
145.000000	78.226593	116.6209
150.000000	78.116325	115.1086
155.000000	78.016571	113.6310
160.000000	77.918289	112.1825
165.000000	77.824547	110.8121
170.000000	77.729561	109.4643
175.000000	77.644882	108.1440
180.000000	77.564865	106.9015
185.000000	77.476494	105.5585
190.000000	77.400299	104.3692
195.000000	77.326897	103.1652
200.000000	77.252907	101.9888
206.000000	77.170517	100.6141
212.000000	77.089272	99.2878
218.000000	77.015518	97.9866
224.000000	76.943428	96.7379
230.000000	76.871498	95.5030
236.000000	76.808128	94.3112
243.000000	76.724762	92.9701
250.000000	76.653275	91.6618
258.000000	76.580093	90.1991
265.000000	76.512634	88.9687
272.000000	76.449158	87.7870
280.000000	76.381042	86.4621
290.000000	76.296852	84.8917
300.000000	76.226814	83.4650
307.000000	76.168907	82.3824
315.000000	76.111099	81.2760
325.000000	76.041046	79.9470
335.000000	75.978027	78.6516
345.000000	75.917763	77.4283
355.000000	75.856201	76.2857
365.000000	75.802032	75.1805
375.000000	75.745926	74.1436
387.000000	75.686905	72.9481
400.000000	75.619156	71.7485
412.000000	75.570320	70.6782
425.000000	75.511963	69.6526
437.000000	75.463730	68.7402
450.000000	75.417145	67.8296
462.000000	75.374306	67.0488
475.000000	75.333389	66.2702
487.000000	75.295319	65.6067
500.000000	75.258469	64.9633
515.000000	75.220284	64.2711
530.000000	75.187042	63.6660
545.000000	75.158089	63.1254
560.000000	75.133812	62.6415
580.000000	75.107216	62.1457
600.000000	75.088837	61.7581
615.000000	75.084480	61.5008
630.000000	75.083908	61.3237
650.000000	75.092850	61.1501
670.000000	75.111427	61.0844
690.000000	75.141556	61.0562
710.000000	75.180511	61.0858
730.000000	75.234589	61.2047
750.000000	75.301338	61.3568
775.000000	75.402573	61.5749
800.000000	75.523361	61.8644
825.000000	75.661690	62.0947
850.000000	75.818451	62.3489
875.000000	75.996498	62.5594
900.000000	76.187195	62.7143
925.000000	76.391678	62.7993
950.000000	76.609825	62.7899
975.000000	76.834251	62.6749
1000.000000	77.066818	62.4465
1030.000000	77.344254	62.0231
1060.000000	77.616554	61.4014
1090.000000	77.876976	60.6602
1120.000000	78.122337	59.7715
1150.000000	78.352020	58.7843
1180.000000	78.562378	57.7277
1220.000000	78.805725	56.2241
1250.000000	78.963081	55.0853
1280.000000	79.097244	53.9812
1320.000000	79.249733	52.5754
1360.000000	79.376518	51.2804
1400.000000	79.486137	50.1230
1450.000000	79.607498	48.8613
1500.000000	79.719818	47.7782
1550.000000	79.830658	46.8424
1600.000000	79.947807	46.0287
1650.000000	80.067543	45.3019
1700.000000	80.197433	44.6404
1750.000000	80.337097	44.0017
1800.000000	80.485229	43.3479
1850.000000	80.643799	42.6739
1900.000000	80.809166	41.9224
1950.000000	80.977684	41.0997
2000.000000	81.148254	40.1600
2060.000000	81.347633	38.8850
2120.000000	81.536537	37.4298
2180.000000	81.704849	35.7895
2240.000000	81.847977	33.9753
2300.000000	81.954758	32.0239
2360.000000	82.022011	29.9837
2430.000000	82.045349	27.5615
2500.000000	82.007248	25.1997
2580.000000	81.895004	22.6696
2650.000000	81.746803	20.6967
2720.000000	81.562927	19.0079
2800.000000	81.326286	17.4539
2900.000000	81.015678	16.0837
3000.000000	80.715385	15.2734
3070.000000	80.526878	15.0079
3150.000000	80.337921	14.9113
3250.000000	80.150169	15.0189
3350.000000	80.015549	15.2726
3450.000000	79.938477	15.5677
3550.000000	79.919548	15.7888
3650.000000	79.950157	15.8348
3750.000000	80.020096	15.5945
3870.000000	80.134117	14.8206
4000.000000	80.250244	13.2646
4120.000000	80.291954	11.2263
4250.000000	80.198074	8.6425
4370.000000	79.944130	6.5082
4500.000000	79.517235	5.3296
4620.000000	79.093124	5.8793
4750.000000	78.785141	8.3203
4870.000000	78.796082	11.5454
5000.000000	79.214066	14.5204
5150.000000	80.045334	14.6835
5300.000000	80.690720	10.3224
5450.000000	80.694260	3.8695
5600.000000	80.097038	-1.2528
5800.000000	78.874023	-4.1050
6000.000000	77.525192	-3.0690
6150.000000	76.467140	0.3694
6300.000000	75.553604	7.0929
6500.000000	75.205490	18.6039
6700.000000	75.557007	27.2855
6900.000000	76.037003	33.4409
7100.000000	76.612167	38.2408
7300.000000	77.333473	41.5482
7500.000000	78.206100	42.7514
7750.000000	79.365883	40.0300
8000.000000	80.225021	31.8076
8250.000000	80.273994	20.2326
8500.000000	79.522087	10.1965
8750.000000	78.527649	4.0067
9000.000000	77.732948	0.5787
9250.000000	77.210403	-1.5339
9500.000000	76.901123	-3.8492
9750.000000	76.597771	-4.9401
10000.000000	76.443741	-4.9506
10300.000000	76.482330	-4.1770
10600.000000	76.714767	-3.6253
10900.000000	77.012207	-4.1221
11200.000000	77.234955	-5.9824
11500.000000	77.270996	-9.1388
11800.000000	77.124260	-13.2068
12200.000000	76.739944	-21.5247
12500.000000	76.209846	-31.1173
12800.000000	75.303802	-44.5886
13200.000000	73.181175	-66.9060
13600.000000	70.604362	-88.3892
14000.000000	68.988609	-107.8794
14500.000000	68.297440	-129.6049
15000.000000	67.859993	-142.1415
15500.000000	68.972267	-143.3812
16000.000000	70.782669	-165.4686
16500.000000	69.084229	175.8743
17000.000000	67.710709	168.2271
17500.000000	68.302490	152.1476
18000.000000	67.691086	114.5142
18500.000000	65.361443	60.7795
19000.000000	62.901527	-32.5708
19500.000000	65.725197	-162.7288
