* Measurement data measured by REW V5.20 Beta 56
* Source: IEC-60711 (USB Sound Device        ), MICROPHONE (Master Volume), R, volume: 0.530
* Format: 1M Log Swept Sine, 1 sweep at -3.0 dBFS with no timing reference
* Dated: Jul 23, 2020 10:09:49 PM
* REW Settings:
*  C-weighting compensation: Off
*  Target level: 75.0 dB
* Note: ; 
* Measurement: Empire Ears Valkyrie - L
* Smoothing: 1/48 octave
* Frequency Step: 1/24 octave
* Start Frequency: 20.000 Hz
*
* Freq(Hz)	SPL(dB)	Phase(degrees)
20.000000	93.730347	173.2569
20.600000	93.728050	172.9335
21.200001	93.708199	172.6913
21.799999	93.667839	172.4026
22.400000	93.643250	172.1909
23.000000	93.611488	171.7937
23.600000	93.589088	171.5524
24.299999	93.566170	171.2406
25.000000	93.502151	171.1170
25.799999	93.433617	170.7781
26.500000	93.387466	170.6740
27.200001	93.333969	170.5992
28.000000	93.271790	170.4233
29.000000	93.187149	170.1982
30.000000	93.097572	170.0569
30.700001	93.048111	169.9156
31.500000	92.969872	169.8689
32.500000	92.875793	169.8191
33.500000	92.787354	169.7362
34.500000	92.671158	169.7544
35.500000	92.561470	169.7649
36.500000	92.458755	169.7673
37.500000	92.363510	169.9115
38.700001	92.231186	170.0029
40.000000	92.096588	170.0731
41.200001	91.980217	170.2587
42.500000	91.835587	170.4317
43.700001	91.706879	170.6296
45.000000	91.573875	170.8660
46.200001	91.438042	171.0027
47.500000	91.300415	171.3499
48.700001	91.188095	171.5952
50.000000	91.050507	171.9532
51.500000	90.898926	172.3678
53.000000	90.745148	172.6483
54.500000	90.606560	173.0505
56.000000	90.447586	173.5458
58.000000	90.229904	174.2518
60.000000	90.056274	174.8163
61.500000	89.912094	175.3641
63.000000	89.768951	175.9121
65.000000	89.601288	176.6572
67.000000	89.405357	177.2957
69.000000	89.233635	178.1481
71.000000	89.044891	178.8774
73.000000	88.871231	179.6527
75.000000	88.712395	-179.4798
77.500000	88.493584	-178.4299
80.000000	88.305450	-177.3171
82.500000	88.083260	-176.3398
85.000000	87.908722	-175.1608
87.500000	87.702812	-174.0973
90.000000	87.541534	-173.1350
92.500000	87.352638	-171.7434
95.000000	87.166000	-170.7759
97.500000	87.001846	-169.4367
100.000000	86.814781	-168.4524
103.000000	86.610519	-166.9064
106.000000	86.418152	-165.4981
109.000000	86.227066	-164.1196
112.000000	86.055290	-162.7176
115.000000	85.867889	-161.4340
118.000000	85.698181	-159.8588
122.000000	85.456940	-157.9147
125.000000	85.295959	-156.2926
128.000000	85.147202	-154.8625
132.000000	84.919716	-152.8442
136.000000	84.725716	-151.0109
140.000000	84.505127	-149.0464
145.000000	84.292793	-146.6076
150.000000	84.036095	-144.1944
155.000000	83.805359	-141.6923
160.000000	83.590004	-139.3381
165.000000	83.381126	-136.7518
170.000000	83.193764	-134.4808
175.000000	82.973694	-132.1069
180.000000	82.799515	-129.8552
185.000000	82.587181	-127.4349
190.000000	82.405205	-124.9058
195.000000	82.253006	-122.6886
200.000000	82.115479	-120.3334
206.000000	81.905785	-117.5658
212.000000	81.711563	-114.6609
218.000000	81.534134	-111.9736
224.000000	81.362694	-109.0722
230.000000	81.215027	-106.5718
236.000000	81.050819	-103.6084
243.000000	80.864578	-100.4369
250.000000	80.708687	-97.3486
258.000000	80.507896	-94.0460
265.000000	80.314911	-90.7385
272.000000	80.208626	-87.8592
280.000000	80.023331	-83.8819
290.000000	79.804344	-79.7934
300.000000	79.611603	-75.8033
307.000000	79.495041	-72.7959
315.000000	79.342728	-69.2722
325.000000	79.210480	-64.9036
335.000000	79.073532	-60.8686
345.000000	78.884254	-56.9396
355.000000	78.781876	-52.9222
365.000000	78.645950	-48.6917
375.000000	78.522736	-44.7134
387.000000	78.368385	-40.2036
400.000000	78.252716	-35.2266
412.000000	78.119995	-30.3973
425.000000	78.001602	-25.6093
437.000000	77.945114	-21.0641
450.000000	77.773239	-16.2023
462.000000	77.679329	-11.7269
475.000000	77.612000	-6.9295
487.000000	77.531433	-2.6567
500.000000	77.441566	2.1976
515.000000	77.250748	7.4232
530.000000	77.266144	12.7990
545.000000	77.183250	17.6764
560.000000	77.081253	23.4070
580.000000	76.908051	30.2086
600.000000	77.053093	38.1364
615.000000	77.010254	42.6403
630.000000	76.994164	47.1738
650.000000	76.957001	54.0192
670.000000	76.891617	60.3373
690.000000	76.843147	66.5905
710.000000	76.748085	73.2468
730.000000	76.577377	80.5859
750.000000	76.519501	90.1692
775.000000	77.346214	100.0530
800.000000	77.714928	105.3224
825.000000	77.850258	111.8295
850.000000	77.941742	118.6168
875.000000	78.106308	125.7490
900.000000	78.276237	132.7710
925.000000	78.510559	139.8895
950.000000	78.773285	146.9073
975.000000	79.034843	153.7498
1000.000000	79.456261	160.1309
1030.000000	79.703842	167.9585
1060.000000	80.168030	175.6295
1090.000000	80.595169	-177.4641
1120.000000	81.096031	-170.8561
1150.000000	81.564667	-164.9079
1180.000000	82.003738	-159.2661
1220.000000	82.532303	-152.3420
1250.000000	82.952499	-147.2714
1280.000000	83.270340	-142.2661
1320.000000	83.747414	-135.8978
1360.000000	84.180725	-129.7801
1400.000000	84.591110	-123.7474
1450.000000	85.082001	-116.6245
1500.000000	85.564507	-109.8497
1550.000000	86.013496	-103.3228
1600.000000	86.469635	-97.0928
1650.000000	86.890877	-91.3423
1700.000000	87.277283	-85.8089
1750.000000	87.627747	-80.6155
1800.000000	87.964134	-75.7589
1850.000000	88.264008	-71.1235
1900.000000	88.517830	-66.6503
1950.000000	88.728104	-62.4074
2000.000000	88.933685	-58.3253
2060.000000	89.076096	-53.5105
2120.000000	89.207123	-48.8121
2180.000000	89.313904	-44.2095
2240.000000	89.390915	-39.6486
2300.000000	89.450081	-35.1303
2360.000000	89.479431	-30.6149
2430.000000	89.539604	-25.3954
2500.000000	89.586105	-20.3016
2580.000000	89.643440	-14.6425
2650.000000	89.690781	-9.8961
2720.000000	89.754807	-5.2835
2800.000000	89.826668	-0.3095
2900.000000	89.930412	5.6100
3000.000000	90.033737	11.1245
3070.000000	90.118942	14.6199
3150.000000	90.229324	18.3765
3250.000000	90.340454	22.7006
3350.000000	90.452400	26.6046
3450.000000	90.565147	30.0177
3550.000000	90.667557	33.1139
3650.000000	90.746010	35.7351
3750.000000	90.818405	38.0064
3870.000000	90.904808	40.3714
4000.000000	90.983345	42.6135
4120.000000	91.077888	44.3157
4250.000000	91.257965	45.6184
4370.000000	91.485825	46.0701
4500.000000	91.807732	45.6677
4620.000000	92.146538	43.7307
4750.000000	92.444061	39.7747
4870.000000	92.573242	34.6420
5000.000000	92.470329	27.9091
5150.000000	91.967987	19.9822
5300.000000	91.184402	12.6584
5450.000000	90.212555	6.6244
5600.000000	89.164543	1.8302
5800.000000	87.836227	-2.8755
6000.000000	86.666405	-6.2354
6150.000000	85.927765	-8.4110
6300.000000	85.333115	-10.4459
6500.000000	84.716270	-13.3663
6700.000000	84.307922	-16.7904
6900.000000	84.137245	-20.7862
7100.000000	84.181656	-25.7982
7300.000000	84.508995	-32.1123
7500.000000	85.075363	-40.1181
7750.000000	86.093872	-53.3303
8000.000000	87.327980	-72.0392
8250.000000	88.280701	-96.9326
8500.000000	88.509491	-125.4872
8750.000000	88.052254	-153.8517
9000.000000	87.317581	179.7941
9250.000000	86.654358	153.9330
9500.000000	85.929405	126.9587
9750.000000	84.941322	99.9488
10000.000000	83.803177	74.8489
10300.000000	82.534248	47.2612
10600.000000	81.860138	21.4645
10900.000000	81.975174	-5.6444
11200.000000	82.792160	-36.8624
11500.000000	83.946022	-76.2333
11800.000000	84.346756	-125.3966
12200.000000	82.426987	168.7731
12500.000000	80.363091	126.3105
12800.000000	78.484047	88.4221
13200.000000	76.750923	40.5846
13600.000000	75.829773	-8.4895
14000.000000	75.646965	-59.9857
14500.000000	75.946854	-131.0145
15000.000000	76.691154	149.3883
15500.000000	77.743423	57.2847
16000.000000	76.714241	-57.7628
16500.000000	69.726837	-140.2596
17000.000000	59.602722	-117.0615
17500.000000	64.089302	95.9473
18000.000000	65.425346	34.3770
18500.000000	66.028236	-52.6133
19000.000000	66.455025	-147.2129
19500.000000	66.339233	109.3223
