* Measurement data measured by REW V5.20 Beta 31
* Source: IEC-711 (3- USB Sound Device        ), MICROPHONE (Master Volume), R, volume: 0.530
* Format: 1M Log Swept Sine, 1 sweep at 0.0 dBFS With no timing reference
* Dated: Jan 27, 2020 6:03:23 PM
* REW Settings:
*  C-weighting compensation: Off
*  Target level: 75.0 dB
* Note: ; 
* Measurement: Hidition Viento R-C - R
* Smoothing: 1/48 octave
* Frequency Step: 1/24 octave
* Start Frequency: 20.000 Hz
*
* Freq(Hz)	SPL(dB)	Phase(degrees)
20.000000	87.748444	-141.5053
20.600000	87.808456	-140.5509
21.200001	87.945015	-140.1565
21.799999	87.991211	-140.5589
22.400000	87.918274	-140.8427
23.000000	87.837135	-140.6924
23.600000	87.801155	-140.5256
24.299999	87.771500	-140.4994
25.000000	87.763702	-140.3690
25.799999	87.814346	-140.3856
26.500000	87.837379	-140.6230
27.200001	87.829941	-140.5969
28.000000	87.848343	-140.3109
29.000000	87.860413	-140.0400
30.000000	87.847214	-139.5199
30.700001	87.849030	-139.2250
31.500000	87.824593	-139.0038
32.500000	87.784447	-138.5907
33.500000	87.763664	-138.2716
34.500000	87.735283	-137.9319
35.500000	87.725868	-137.5026
36.500000	87.716675	-137.0536
37.500000	87.709885	-136.4927
38.700001	87.698189	-135.8513
40.000000	87.664009	-135.1208
41.200001	87.628250	-134.4314
42.500000	87.598969	-133.7028
43.700001	87.576996	-133.0289
45.000000	87.571304	-132.2843
46.200001	87.557007	-131.6105
47.500000	87.528992	-130.7549
48.700001	87.511223	-129.8215
50.000000	87.508125	-128.9873
51.500000	87.473305	-128.0222
53.000000	87.460434	-127.0044
54.500000	87.445076	-125.9771
56.000000	87.438705	-124.9725
58.000000	87.412354	-123.5368
60.000000	87.365051	-121.9279
61.500000	87.386948	-120.9561
63.000000	87.373093	-119.9521
65.000000	87.350800	-118.6101
67.000000	87.348061	-117.1218
69.000000	87.340233	-115.7316
71.000000	87.331787	-114.3011
73.000000	87.327843	-112.8351
75.000000	87.331787	-111.4377
77.500000	87.333954	-109.6971
80.000000	87.328506	-107.9460
82.500000	87.329369	-106.2026
85.000000	87.326233	-104.5217
87.500000	87.350250	-102.8369
90.000000	87.377579	-101.2944
92.500000	87.356506	-99.4984
95.000000	87.343689	-97.8185
97.500000	87.339684	-96.1338
100.000000	87.337830	-94.5281
103.000000	87.335175	-92.5288
106.000000	87.326561	-90.5892
109.000000	87.326683	-88.6304
112.000000	87.323486	-86.7363
115.000000	87.312874	-84.7649
118.000000	87.309723	-82.8607
122.000000	87.292778	-80.3201
125.000000	87.283829	-78.4313
128.000000	87.271027	-76.5247
132.000000	87.262573	-73.9713
136.000000	87.247299	-71.4173
140.000000	87.218430	-68.9042
145.000000	87.207191	-65.7816
150.000000	87.179993	-62.6239
155.000000	87.166267	-59.5402
160.000000	87.141380	-56.4325
165.000000	87.110359	-53.3532
170.000000	87.090363	-50.3081
175.000000	87.067390	-47.2733
180.000000	87.052017	-44.1787
185.000000	87.012794	-41.1531
190.000000	86.990707	-38.1752
195.000000	86.962143	-35.1130
200.000000	86.935059	-32.1232
206.000000	86.910629	-28.5495
212.000000	86.878593	-24.9711
218.000000	86.841522	-21.4122
224.000000	86.809418	-17.8656
230.000000	86.786514	-14.3181
236.000000	86.760841	-10.8465
243.000000	86.723717	-6.7064
250.000000	86.687553	-2.6673
258.000000	86.648041	1.9425
265.000000	86.607689	5.9889
272.000000	86.570053	9.9746
280.000000	86.532150	14.5549
290.000000	86.489021	20.1854
300.000000	86.441635	25.8820
307.000000	86.404037	29.7960
315.000000	86.374077	34.1940
325.000000	86.321991	39.7221
335.000000	86.281578	45.2222
345.000000	86.237320	50.6029
355.000000	86.196121	56.0138
365.000000	86.149002	61.3432
375.000000	86.102386	66.6732
387.000000	86.034798	73.0158
400.000000	85.976494	79.8607
412.000000	85.905869	86.1330
425.000000	85.846329	92.8455
437.000000	85.780571	98.9743
450.000000	85.714691	105.6687
462.000000	85.649536	111.8109
475.000000	85.581543	118.3766
487.000000	85.521751	124.4484
500.000000	85.454056	130.9206
515.000000	85.373825	138.4193
530.000000	85.293686	145.7891
545.000000	85.208115	153.0311
560.000000	85.093109	160.3182
580.000000	84.954163	169.9667
600.000000	84.798088	179.6628
615.000000	84.700836	-172.8383
630.000000	84.591385	-165.5531
650.000000	84.479279	-155.7325
670.000000	84.357498	-146.0185
690.000000	84.257408	-136.3716
710.000000	84.140579	-126.8449
730.000000	84.047333	-117.3842
750.000000	83.935150	-108.0248
775.000000	83.787231	-96.2880
800.000000	83.633125	-84.6903
825.000000	83.457321	-72.9912
850.000000	83.252701	-61.0482
875.000000	83.062996	-48.7121
900.000000	82.937752	-36.0089
925.000000	82.900276	-23.3250
950.000000	82.943443	-10.7976
975.000000	83.025391	1.3123
1000.000000	83.168968	13.1125
1030.000000	83.315674	27.0925
1060.000000	83.504112	40.5977
1090.000000	83.707703	53.7598
1120.000000	83.940247	66.5361
1150.000000	84.175667	78.9204
1180.000000	84.408508	90.9245
1220.000000	84.708107	106.4681
1250.000000	84.913231	117.7272
1280.000000	85.098785	128.8116
1320.000000	85.314865	143.2245
1360.000000	85.499001	157.4189
1400.000000	85.637650	171.4175
1450.000000	85.790710	-171.2878
1500.000000	85.906693	-154.0339
1550.000000	86.033684	-136.8575
1600.000000	86.150352	-119.9337
1650.000000	86.291092	-103.1138
1700.000000	86.431053	-86.6183
1750.000000	86.568497	-70.3319
1800.000000	86.709709	-54.1995
1850.000000	86.859894	-38.2961
1900.000000	87.010162	-22.5572
1950.000000	87.166298	-7.0286
2000.000000	87.348648	8.2842
2060.000000	87.555206	26.4719
2120.000000	87.787170	44.3539
2180.000000	88.047974	61.9347
2240.000000	88.338013	79.1121
2300.000000	88.649887	95.9115
2360.000000	88.982071	112.2471
2430.000000	89.393150	130.6327
2500.000000	89.801918	148.3302
2580.000000	90.268936	167.6045
2650.000000	90.638458	-176.3203
2720.000000	90.975670	-160.9370
2800.000000	91.283531	-144.2078
2900.000000	91.531876	-124.3020
3000.000000	91.591599	-105.2687
3070.000000	91.524811	-92.2343
3150.000000	91.322731	-77.4408
3250.000000	90.892776	-58.8157
3350.000000	90.306396	-39.5428
3450.000000	89.645515	-19.4940
3550.000000	88.925888	1.4543
3650.000000	88.247147	23.7852
3750.000000	87.699867	47.2449
3870.000000	87.440353	76.6451
4000.000000	87.778297	106.5500
4120.000000	88.121674	131.0735
4250.000000	88.566193	156.1046
4370.000000	88.902367	177.2050
4500.000000	89.124039	-160.7911
4620.000000	89.275337	-141.2128
4750.000000	89.310776	-120.6165
4870.000000	89.260406	-101.5371
5000.000000	89.219978	-80.7107
5150.000000	89.240082	-57.1327
5300.000000	89.293762	-34.2729
5450.000000	89.349602	-12.0204
5600.000000	89.429810	9.8944
5800.000000	89.678436	38.1517
6000.000000	89.993179	64.8319
6150.000000	90.249496	84.4088
6300.000000	90.670143	103.9478
6500.000000	91.669968	128.3893
6700.000000	93.077415	148.1626
6900.000000	94.500626	161.7089
7100.000000	95.418610	169.4495
7300.000000	95.537704	174.7876
7500.000000	95.158752	-179.4089
7750.000000	94.328384	-173.1381
8000.000000	92.503044	-166.3453
8250.000000	90.518478	-155.5120
8500.000000	88.492142	-141.2859
8750.000000	86.905518	-124.9509
9000.000000	85.913628	-110.5745
9250.000000	84.947983	-102.7278
9500.000000	82.495102	-98.7372
9750.000000	79.194443	-84.3381
10000.000000	75.838089	-63.9531
10300.000000	72.810211	-30.2424
10600.000000	71.350945	6.1206
10900.000000	71.191284	39.8774
11200.000000	71.997353	67.9135
11500.000000	72.968559	88.2439
11800.000000	73.510567	103.3135
12200.000000	73.470291	122.4802
12500.000000	73.348282	137.4470
12800.000000	73.297035	151.6543
13200.000000	73.090706	169.3760
13600.000000	72.852509	-169.5249
14000.000000	73.847183	-146.8367
14500.000000	76.229515	-127.3606
15000.000000	79.256599	-115.9075
15500.000000	83.014893	-116.2803
16000.000000	85.976532	-133.7075
16500.000000	87.127060	-156.3516
17000.000000	87.484718	176.6221
17500.000000	85.901886	145.1611
18000.000000	82.578552	124.3186
18500.000000	79.949539	113.0254
19000.000000	78.875244	98.4067
19500.000000	77.760544	66.0432
