* Measurement data measured by REW V5.20 Beta 31
* Source: IEC-711 (3- USB Sound Device        ), MICROPHONE (Master Volume), R, volume: 0.530
* Format: 1M Log Swept Sine, 1 sweep at 0.0 dBFS With no timing reference
* Dated: Jan 27, 2020 5:59:45 PM
* REW Settings:
*  C-weighting compensation: Off
*  Target level: 75.0 dB
* Note: ; 
* Measurement: Hidition Viento R-B - R
* Smoothing: 1/48 octave
* Frequency Step: 1/24 octave
* Start Frequency: 20.000 Hz
*
* Freq(Hz)	SPL(dB)	Phase(degrees)
20.000000	89.010910	-155.3271
20.600000	88.978050	-156.1414
21.200001	88.923225	-156.0927
21.799999	88.940491	-156.1412
22.400000	88.928856	-156.6970
23.000000	88.856392	-157.1916
23.600000	88.799973	-157.4229
24.299999	88.782005	-157.8766
25.000000	88.739204	-158.5415
25.799999	88.669632	-159.0065
26.500000	88.629349	-159.2789
27.200001	88.578026	-159.5135
28.000000	88.509590	-159.5156
29.000000	88.454956	-159.4133
30.000000	88.375084	-159.5173
30.700001	88.292915	-159.5129
31.500000	88.205353	-159.4053
32.500000	88.112366	-159.3091
33.500000	88.045105	-159.2398
34.500000	87.987930	-159.5620
35.500000	87.830704	-159.7538
36.500000	87.725143	-159.1006
37.500000	87.704346	-158.9526
38.700001	87.568024	-158.7937
40.000000	87.485863	-158.3000
41.200001	87.367371	-158.0769
42.500000	87.245552	-157.5206
43.700001	87.143021	-156.9574
45.000000	87.040771	-156.3675
46.200001	86.938438	-155.8041
47.500000	86.828621	-155.2047
48.700001	86.725517	-154.6391
50.000000	86.620758	-153.9762
51.500000	86.509529	-153.1916
53.000000	86.396210	-152.2933
54.500000	86.289345	-151.4028
56.000000	86.175415	-150.4533
58.000000	86.029495	-149.2416
60.000000	85.877357	-148.3281
61.500000	85.791565	-147.0029
63.000000	85.716660	-146.0301
65.000000	85.598137	-144.5928
67.000000	85.486183	-143.1041
69.000000	85.377480	-141.7404
71.000000	85.272217	-140.3383
73.000000	85.183159	-138.8978
75.000000	85.085297	-137.4596
77.500000	84.971306	-135.6541
80.000000	84.861023	-133.8704
82.500000	84.775269	-132.0721
85.000000	84.668587	-130.2868
87.500000	84.578346	-128.4078
90.000000	84.464523	-126.6513
92.500000	84.405983	-124.8342
95.000000	84.335091	-123.0697
97.500000	84.242157	-121.3204
100.000000	84.165665	-119.5849
103.000000	84.092682	-117.4401
106.000000	84.007706	-115.3193
109.000000	83.921242	-113.1685
112.000000	83.843109	-111.0707
115.000000	83.781708	-108.9778
118.000000	83.697701	-106.8858
122.000000	83.608284	-104.0240
125.000000	83.549133	-102.0549
128.000000	83.480911	-99.9308
132.000000	83.396835	-97.1763
136.000000	83.320549	-94.4500
140.000000	83.242035	-91.6809
145.000000	83.155647	-88.2857
150.000000	83.073662	-84.9125
155.000000	82.991768	-81.5130
160.000000	82.925262	-78.1836
165.000000	82.847916	-74.9548
170.000000	82.787415	-71.6473
175.000000	82.735222	-68.3302
180.000000	82.699074	-65.1394
185.000000	82.626900	-61.9127
190.000000	82.578484	-58.7047
195.000000	82.525467	-55.4800
200.000000	82.481140	-52.3701
206.000000	82.437408	-48.6135
212.000000	82.383522	-44.8480
218.000000	82.330132	-41.1555
224.000000	82.292862	-37.5169
230.000000	82.259018	-33.8860
236.000000	82.223396	-30.2580
243.000000	82.200172	-26.0915
250.000000	82.161308	-21.9632
258.000000	82.119713	-17.3003
265.000000	82.102493	-13.1988
272.000000	82.068108	-9.2272
280.000000	82.045250	-4.7929
290.000000	82.017235	0.9628
300.000000	81.987984	6.2983
307.000000	81.974403	10.1288
315.000000	81.956978	14.5523
325.000000	81.940704	19.9373
335.000000	81.914200	25.1448
345.000000	81.910980	30.1500
355.000000	81.902687	35.4400
365.000000	81.884155	40.6776
375.000000	81.857361	45.7357
387.000000	81.845222	51.7060
400.000000	81.825401	58.1941
412.000000	81.805786	64.0747
425.000000	81.786613	70.3725
437.000000	81.779457	76.0817
450.000000	81.770035	82.2033
462.000000	81.764397	87.8555
475.000000	81.736359	93.7713
487.000000	81.729485	99.2133
500.000000	81.693909	105.0909
515.000000	81.642876	111.7304
530.000000	81.621498	118.3549
545.000000	81.575653	124.9266
560.000000	81.533516	131.3389
580.000000	81.460083	139.9682
600.000000	81.339005	148.6939
615.000000	81.242134	155.8094
630.000000	81.146721	161.9675
650.000000	81.120049	171.0479
670.000000	81.086037	179.6611
690.000000	81.035713	-171.8031
710.000000	81.019005	-163.6050
730.000000	80.973595	-155.4167
750.000000	80.932014	-147.2921
775.000000	80.837723	-137.3135
800.000000	80.706139	-127.3896
825.000000	80.534302	-117.1564
850.000000	80.319717	-106.5203
875.000000	80.165443	-95.1127
900.000000	80.118622	-83.2544
925.000000	80.221695	-71.4403
950.000000	80.436493	-60.2374
975.000000	80.689934	-49.7234
1000.000000	80.957466	-39.9808
1030.000000	81.276779	-28.2101
1060.000000	81.586166	-17.0853
1090.000000	81.914536	-6.3195
1120.000000	82.228622	4.0107
1150.000000	82.538940	14.0003
1180.000000	82.842079	23.4875
1220.000000	83.206078	35.7788
1250.000000	83.443497	44.6460
1280.000000	83.656708	53.2668
1320.000000	83.902016	64.5697
1360.000000	84.101723	75.6956
1400.000000	84.252998	86.6870
1450.000000	84.402840	100.3766
1500.000000	84.511978	114.1406
1550.000000	84.638298	127.9539
1600.000000	84.770752	141.7008
1650.000000	84.928253	155.3920
1700.000000	85.106827	168.9427
1750.000000	85.309059	-177.7667
1800.000000	85.531342	-164.7139
1850.000000	85.783569	-151.9489
1900.000000	86.054092	-139.3754
1950.000000	86.339767	-127.2024
2000.000000	86.640663	-115.3690
2060.000000	87.020584	-101.4536
2120.000000	87.410179	-88.0875
2180.000000	87.810257	-75.2020
2240.000000	88.213402	-62.8077
2300.000000	88.618744	-50.8670
2360.000000	89.026306	-39.4435
2430.000000	89.485916	-26.7467
2500.000000	89.925980	-14.7472
2580.000000	90.397659	-1.8311
2650.000000	90.762108	8.7812
2720.000000	91.074936	18.8140
2800.000000	91.351936	29.5792
2900.000000	91.556480	42.2012
3000.000000	91.589661	54.2128
3070.000000	91.499893	62.3395
3150.000000	91.288780	71.5950
3250.000000	90.855118	83.3901
3350.000000	90.286949	96.0146
3450.000000	89.666969	109.4078
3550.000000	89.031929	123.8102
3650.000000	88.502350	139.2926
3750.000000	88.124252	155.6663
3870.000000	88.100319	175.7129
4000.000000	88.523239	-165.3708
4120.000000	88.807663	-150.4465
4250.000000	89.176308	-135.5417
4370.000000	89.419395	-123.3892
4500.000000	89.543274	-110.6797
4620.000000	89.624809	-99.5420
4750.000000	89.616806	-87.8884
4870.000000	89.573685	-77.0547
5000.000000	89.547806	-65.4545
5150.000000	89.573959	-52.6223
5300.000000	89.604462	-40.5232
5450.000000	89.624153	-28.8879
5600.000000	89.688713	-17.4711
5800.000000	89.923416	-3.2051
6000.000000	90.226974	9.5052
6150.000000	90.485245	18.6101
6300.000000	90.917221	27.7012
6500.000000	91.936676	38.0483
6700.000000	93.360886	43.7113
6900.000000	94.791840	42.9976
7100.000000	95.679878	36.5277
7300.000000	95.755669	28.0037
7500.000000	95.370163	20.0592
7750.000000	94.525604	9.0023
8000.000000	92.848282	-1.1427
8250.000000	90.769089	-7.5620
8500.000000	88.757843	-10.4688
8750.000000	86.619591	-11.1052
9000.000000	85.240311	-13.7798
9250.000000	84.201813	-22.8910
9500.000000	82.319351	-35.9208
9750.000000	79.539864	-38.7585
10000.000000	76.306259	-35.2957
10300.000000	73.383766	-22.1510
10600.000000	72.001442	-6.7114
10900.000000	71.902473	5.8989
11200.000000	72.679939	12.8218
11500.000000	73.631447	12.4702
11800.000000	74.159653	6.9424
12200.000000	74.163017	-1.1525
12500.000000	74.108833	-7.1610
12800.000000	74.129471	-13.9200
13200.000000	73.922058	-24.5254
13600.000000	73.628136	-31.5682
14000.000000	74.531448	-36.6049
14500.000000	76.885918	-51.2778
15000.000000	79.971344	-74.5215
15500.000000	83.764938	-110.3246
16000.000000	86.518364	-163.2734
16500.000000	87.514526	140.4323
17000.000000	87.889008	79.4859
17500.000000	86.298889	13.7245
18000.000000	83.026741	-41.2335
18500.000000	80.505173	-87.1486
19000.000000	79.535629	-137.6526
19500.000000	78.177345	153.2761
