* Measurement data measured by REW V5.20
* Source: Headset (USB-C to 3.5mm Headphone Jack Adapter), MICROPHONE (Master Volume), R, volume: 0.960
* Format: 512k Log Swept Sine, 1 sweep at -6.0 dBFS with no timing reference
* Dated: Jan 17, 2021 10:57:58 AM
* REW Settings:
*  C-weighting compensation: Off
*  Target level: 75.0 dB
* Note: ; 
* Measurement: qkz VK4 - R
* Smoothing: 1/48 octave
* Frequency Step: 1/24 octave
* Start Frequency: 20.600 Hz
*
* Freq(Hz)	SPL(dB)	Phase(degrees)
20.600000	95.482704	-134.3413
21.200001	95.474800	-136.3210
21.799999	95.460266	-138.1604
22.400000	95.439201	-139.9558
23.000000	95.413765	-141.7003
23.600000	95.381973	-143.4088
24.299999	95.348747	-145.3230
25.000000	95.305832	-147.0970
25.799999	95.244560	-149.1886
26.500000	95.198112	-150.9081
27.200001	95.136581	-152.4689
28.000000	95.065453	-154.2476
29.000000	94.972359	-156.4106
30.000000	94.875237	-158.4685
30.700001	94.823631	-159.8288
31.500000	94.765160	-161.3402
32.500000	94.688400	-163.1476
33.500000	94.608246	-164.8745
34.500000	94.519760	-166.5269
35.500000	94.432091	-168.1351
36.500000	94.343277	-169.6504
37.500000	94.249359	-171.0684
38.700001	94.132965	-172.7397
40.000000	94.003716	-174.4238
41.200001	93.886124	-175.9386
42.500000	93.755585	-177.5077
43.700001	93.634682	-178.8827
45.000000	93.500717	179.7311
46.200001	93.375633	178.4686
47.500000	93.243011	177.2147
48.700001	93.114441	176.1185
50.000000	92.982597	174.9147
51.500000	92.827560	173.6605
53.000000	92.671158	172.4794
54.500000	92.516891	171.3180
56.000000	92.381668	170.2031
58.000000	92.219696	168.8254
60.000000	92.057259	167.5154
61.500000	91.935478	166.6700
63.000000	91.818497	165.8263
65.000000	91.658432	164.7182
67.000000	91.503395	163.7300
69.000000	91.345673	162.7667
71.000000	91.190216	161.8662
73.000000	91.033951	161.0694
75.000000	90.883247	160.2790
77.500000	90.698662	159.3668
80.000000	90.512474	158.5285
82.500000	90.332375	157.7629
85.000000	90.155724	157.0421
87.500000	89.979828	156.3832
90.000000	89.820129	155.7210
92.500000	89.643242	155.2063
95.000000	89.476158	154.7030
97.500000	89.315651	154.2161
100.000000	89.159058	153.7841
103.000000	88.994324	153.3069
106.000000	88.835800	152.8563
109.000000	88.680336	152.4763
112.000000	88.525780	152.1169
115.000000	88.380936	151.8154
118.000000	88.235809	151.5232
122.000000	88.045380	151.2035
125.000000	87.908989	151.0064
128.000000	87.773132	150.8090
132.000000	87.598572	150.6203
136.000000	87.430061	150.4557
140.000000	87.263466	150.3320
145.000000	87.065170	150.2322
150.000000	86.875015	150.1769
155.000000	86.690346	150.1522
160.000000	86.509720	150.1816
165.000000	86.338516	150.2493
170.000000	86.172821	150.3190
175.000000	86.011650	150.4344
180.000000	85.861252	150.5777
185.000000	85.707344	150.7378
190.000000	85.565788	150.9221
195.000000	85.425583	151.1300
200.000000	85.293091	151.3545
206.000000	85.135750	151.6322
212.000000	84.988213	151.9420
218.000000	84.843483	152.2632
224.000000	84.706825	152.5941
230.000000	84.573006	152.9464
236.000000	84.444519	153.2872
243.000000	84.302834	153.7354
250.000000	84.167488	154.1786
258.000000	84.017372	154.6854
265.000000	83.892509	155.1500
272.000000	83.772072	155.6419
280.000000	83.641403	156.1801
290.000000	83.482277	156.8637
300.000000	83.348129	157.6403
307.000000	83.250137	158.1020
315.000000	83.133919	158.6544
325.000000	83.016922	159.3441
335.000000	82.893867	160.0421
345.000000	82.779755	160.7604
355.000000	82.672836	161.4806
365.000000	82.568550	162.1884
375.000000	82.473267	162.8893
387.000000	82.362701	163.7421
400.000000	82.252380	164.6531
412.000000	82.155472	165.4867
425.000000	82.054245	166.4068
437.000000	81.969849	167.2242
450.000000	81.882317	168.1149
462.000000	81.804420	168.9413
475.000000	81.727295	169.8212
487.000000	81.659050	170.6307
500.000000	81.588753	171.4976
515.000000	81.514908	172.5089
530.000000	81.444054	173.4987
545.000000	81.377556	174.4994
560.000000	81.317368	175.4866
580.000000	81.244278	176.8030
600.000000	81.177483	178.1148
615.000000	81.130417	179.0981
630.000000	81.089172	-179.9187
650.000000	81.040657	-178.5996
670.000000	80.999130	-177.2807
690.000000	80.965736	-175.9699
710.000000	80.939117	-174.6504
730.000000	80.920090	-173.3274
750.000000	80.910622	-172.0249
775.000000	80.912132	-170.4249
800.000000	80.923622	-168.9582
825.000000	80.858269	-167.7313
850.000000	80.844360	-164.9778
875.000000	80.977180	-163.1949
900.000000	81.080254	-161.6417
925.000000	81.184280	-160.1240
950.000000	81.300430	-158.6786
975.000000	81.428925	-157.3082
1000.000000	81.569046	-156.0250
1030.000000	81.748482	-154.6440
1060.000000	81.937401	-153.4050
1090.000000	82.133774	-152.3196
1120.000000	82.335541	-151.3722
1150.000000	82.545158	-150.5993
1180.000000	82.754791	-150.0388
1220.000000	83.020966	-149.6310
1250.000000	83.193916	-149.5361
1280.000000	83.339882	-149.5290
1320.000000	83.498947	-149.5637
1360.000000	83.625999	-149.5929
1400.000000	83.730644	-149.5785
1450.000000	83.837189	-149.4910
1500.000000	83.926140	-149.3423
1550.000000	84.003647	-149.1337
1600.000000	84.071625	-148.8760
1650.000000	84.132858	-148.5807
1700.000000	84.188370	-148.2599
1750.000000	84.238106	-147.9016
1800.000000	84.283028	-147.5222
1850.000000	84.323784	-147.0963
1900.000000	84.362274	-146.6464
1950.000000	84.398277	-146.1574
2000.000000	84.434227	-145.6448
2060.000000	84.476196	-144.9693
2120.000000	84.519730	-144.2576
2180.000000	84.565292	-143.5075
2240.000000	84.614784	-142.7235
2300.000000	84.667557	-141.9018
2360.000000	84.724861	-141.0414
2430.000000	84.800163	-139.9999
2500.000000	84.885201	-138.9196
2580.000000	84.998810	-137.6513
2650.000000	85.112457	-136.5206
2720.000000	85.242798	-135.3921
2800.000000	85.412018	-134.1092
2900.000000	85.656784	-132.5624
3000.000000	85.942123	-131.1380
3070.000000	86.164482	-130.2449
3150.000000	86.442001	-129.3648
3250.000000	86.818306	-128.5240
3350.000000	87.222359	-128.0323
3450.000000	87.644318	-127.9470
3550.000000	88.072220	-128.2991
3650.000000	88.493210	-129.1247
3750.000000	88.892288	-130.4185
3870.000000	89.321037	-132.5684
4000.000000	89.697540	-135.5152
4120.000000	89.945160	-138.6728
4250.000000	90.090927	-142.3677
4370.000000	90.108818	-145.8487
4500.000000	90.004997	-149.5041
4620.000000	89.807037	-152.6077
4750.000000	89.498833	-155.5385
4870.000000	89.146797	-157.7582
5000.000000	88.714844	-159.5778
5150.000000	88.180107	-160.9077
5300.000000	87.636765	-161.4355
5450.000000	87.110611	-161.2319
5600.000000	86.622177	-160.3831
5800.000000	86.057411	-158.4184
6000.000000	85.614311	-155.7079
6150.000000	85.373535	-153.3153
6300.000000	85.217850	-150.7090
6500.000000	85.152756	-147.0085
6700.000000	85.289536	-143.0051
6900.000000	85.685516	-139.7021
7100.000000	86.242081	-136.8820
7300.000000	87.072792	-134.9181
7500.000000	88.181992	-134.5719
7750.000000	89.972069	-138.0918
8000.000000	91.913132	-149.4948
8250.000000	92.898148	-170.5109
8500.000000	91.961601	166.9985
8750.000000	89.788261	152.2527
9000.000000	87.517128	145.5286
9250.000000	85.648849	143.3632
9500.000000	84.228638	143.0229
9750.000000	83.171951	143.1984
10000.000000	82.407951	143.0176
10300.000000	81.808197	141.0610
10600.000000	81.125114	136.3256
10900.000000	80.141769	130.4903
11200.000000	78.810555	125.1996
11500.000000	77.285095	121.9070
11800.000000	75.758766	120.7446
12200.000000	74.021889	122.3834
12500.000000	73.210953	124.7951
12800.000000	72.886871	126.1128
13200.000000	72.903458	123.5903
13600.000000	72.886932	117.3313
14000.000000	72.989975	109.7504
14500.000000	73.766945	97.5736
15000.000000	75.443970	77.9813
15500.000000	77.498825	45.3209
16000.000000	78.174179	-1.0386
16500.000000	76.930923	-46.8754
17000.000000	75.494125	-88.2822
17500.000000	74.609886	-133.8319
18000.000000	73.506378	169.2087
18500.000000	71.660538	101.2374
19000.000000	67.915359	15.2424
19500.000000	60.951347	-49.0590
