* Measurement data measured by REW V5.20
* Source: Headset (USB-C to 3.5mm Headphone Jack Adapter), MICROPHONE (Master Volume), R, volume: 0.260
* Format: 256k Log Swept Sine, 1 sweep at -6.0 dBFS with no timing reference
* Dated: Feb 17, 2021 5:57:11 PM
* REW Settings:
*  C-weighting compensation: Off
*  Target level: 75.0 dB
* Note: ; 
* Measurement: Thieaudio Voyager 14 L
* Smoothing: 1/48 octave
* Frequency Step: 1/24 octave
* Start Frequency: 20.600 Hz
*
* Freq(Hz)	SPL(dB)	Phase(degrees)
20.600000	91.144615	-127.0890
21.200001	91.169106	-128.4200
21.799999	91.191887	-129.7288
22.400000	91.217239	-131.0233
23.000000	91.240601	-132.2762
23.600000	91.258263	-133.4809
24.299999	91.269104	-134.8490
25.000000	91.271393	-136.1807
25.799999	91.273148	-137.6491
26.500000	91.275330	-138.9038
27.200001	91.272247	-140.1216
28.000000	91.263306	-141.4476
29.000000	91.248764	-143.0481
30.000000	91.229286	-144.5728
30.700001	91.231758	-145.5904
31.500000	91.234283	-146.7251
32.500000	91.235077	-148.0702
33.500000	91.234337	-149.3880
34.500000	91.220474	-150.6380
35.500000	91.214905	-151.8288
36.500000	91.201004	-153.0677
37.500000	91.170876	-154.1480
38.700001	91.147621	-155.3775
40.000000	91.114594	-156.7320
41.200001	91.084991	-157.9125
42.500000	91.046524	-159.1346
43.700001	91.005898	-160.1927
45.000000	90.962639	-161.3169
46.200001	90.918434	-162.3199
47.500000	90.872528	-163.3286
48.700001	90.822296	-164.2609
50.000000	90.774002	-165.2507
51.500000	90.714691	-166.3428
53.000000	90.649155	-167.3119
54.500000	90.581779	-168.2704
56.000000	90.538086	-169.2185
58.000000	90.495743	-170.3879
60.000000	90.434364	-171.4494
61.500000	90.399628	-172.3007
63.000000	90.364494	-173.0840
65.000000	90.308060	-174.0630
67.000000	90.252792	-175.0120
69.000000	90.192177	-175.8826
71.000000	90.131821	-176.7285
73.000000	90.071465	-177.5300
75.000000	90.006943	-178.3054
77.500000	89.928490	-179.2280
80.000000	89.850830	179.9301
82.500000	89.766579	179.1203
85.000000	89.687683	178.3658
87.500000	89.604462	177.6304
90.000000	89.510223	176.9462
92.500000	89.430733	176.3329
95.000000	89.358063	175.7231
97.500000	89.277306	175.1365
100.000000	89.199150	174.6046
103.000000	89.120781	173.9864
106.000000	89.051308	173.4132
109.000000	88.977562	172.8754
112.000000	88.905556	172.3746
115.000000	88.833214	171.9080
118.000000	88.761520	171.4703
122.000000	88.665558	170.9271
125.000000	88.594467	170.5460
128.000000	88.523895	170.1957
132.000000	88.429100	169.7765
136.000000	88.337692	169.3677
140.000000	88.246704	169.0052
145.000000	88.134476	168.6001
150.000000	88.025108	168.2503
155.000000	87.917854	167.9288
160.000000	87.811775	167.6435
165.000000	87.708267	167.4057
170.000000	87.606041	167.1860
175.000000	87.506668	167.0077
180.000000	87.406242	166.8824
185.000000	87.312386	166.7307
190.000000	87.217529	166.6301
195.000000	87.124672	166.5430
200.000000	87.033493	166.4925
206.000000	86.924469	166.4304
212.000000	86.820312	166.4113
218.000000	86.718056	166.4089
224.000000	86.617157	166.4474
230.000000	86.517670	166.4843
236.000000	86.419128	166.5272
243.000000	86.309563	166.6392
250.000000	86.199905	166.7664
258.000000	86.078568	166.9294
265.000000	85.975266	167.1105
272.000000	85.870911	167.2986
280.000000	85.757874	167.5443
290.000000	85.616821	167.8816
300.000000	85.480507	168.2428
307.000000	85.387115	168.5432
315.000000	85.283890	168.8786
325.000000	85.154846	169.3373
335.000000	85.031097	169.8265
345.000000	84.911263	170.3357
355.000000	84.793419	170.9016
365.000000	84.679955	171.4781
375.000000	84.568222	172.0902
387.000000	84.438644	172.8635
400.000000	84.305450	173.7287
412.000000	84.187424	174.5891
425.000000	84.065300	175.5663
437.000000	83.957298	176.4890
450.000000	83.847916	177.5309
462.000000	83.754089	178.5436
475.000000	83.656570	179.6608
487.000000	83.575974	-179.2704
500.000000	83.492752	-178.0689
515.000000	83.409538	-176.6588
530.000000	83.337975	-175.1992
545.000000	83.275383	-173.7097
560.000000	83.226212	-172.1924
580.000000	83.179649	-170.1179
600.000000	83.155899	-168.0199
615.000000	83.152794	-166.4263
630.000000	83.162613	-164.8384
650.000000	83.194153	-162.7079
670.000000	83.247276	-160.5999
690.000000	83.323471	-158.5114
710.000000	83.419670	-156.4619
730.000000	83.536919	-154.4617
750.000000	83.673820	-152.5158
775.000000	83.870338	-150.1853
800.000000	84.093460	-147.9650
825.000000	84.340286	-145.8781
850.000000	84.610641	-143.9370
875.000000	84.900452	-142.1344
900.000000	85.207771	-140.5043
925.000000	85.533607	-139.0425
950.000000	85.872894	-137.7698
975.000000	86.222595	-136.6864
1000.000000	86.579926	-135.8267
1030.000000	87.009048	-135.0587
1060.000000	87.437294	-134.5869
1090.000000	87.855209	-134.3961
1120.000000	88.256592	-134.4532
1150.000000	88.636650	-134.7357
1180.000000	88.993805	-135.2003
1220.000000	89.430687	-136.0276
1250.000000	89.729187	-136.7666
1280.000000	90.003281	-137.5622
1320.000000	90.335739	-138.6865
1360.000000	90.635178	-139.8437
1400.000000	90.907570	-141.0017
1450.000000	91.218155	-142.4337
1500.000000	91.503868	-143.8574
1550.000000	91.770576	-145.2805
1600.000000	92.023651	-146.7242
1650.000000	92.262993	-148.2139
1700.000000	92.490356	-149.7668
1750.000000	92.705139	-151.4101
1800.000000	92.901932	-153.1519
1850.000000	93.078354	-154.9999
1900.000000	93.230377	-156.9530
1950.000000	93.353729	-158.9914
2000.000000	93.443970	-161.0835
2060.000000	93.507332	-163.6223
2120.000000	93.520996	-166.1369
2180.000000	93.488663	-168.5643
2240.000000	93.414604	-170.8531
2300.000000	93.306618	-172.9840
2360.000000	93.169769	-174.9397
2430.000000	92.982185	-177.0007
2500.000000	92.769348	-178.8442
2580.000000	92.495140	179.2751
2650.000000	92.217918	177.8355
2720.000000	91.894867	176.6902
2800.000000	91.477646	175.9952
2900.000000	90.956985	176.3220
3000.000000	90.538170	177.7772
3070.000000	90.334610	179.1883
3150.000000	90.191978	-179.0648
3250.000000	90.134918	-176.8912
3350.000000	90.193962	-174.9022
3450.000000	90.355316	-173.2376
3550.000000	90.610863	-172.0308
3650.000000	90.949295	-171.4442
3750.000000	91.355560	-171.6881
3870.000000	91.888474	-173.4049
4000.000000	92.417770	-177.3580
4120.000000	92.732079	177.0736
4250.000000	92.763702	169.2772
4370.000000	92.364517	160.6948
4500.000000	91.234329	151.5251
4620.000000	89.596024	145.9462
4750.000000	87.527649	144.6645
4870.000000	85.634308	147.7111
5000.000000	83.801849	155.0612
5150.000000	82.224998	168.0529
5300.000000	81.570526	-175.8241
5450.000000	82.050308	-160.2942
5600.000000	83.404839	-149.5891
5800.000000	84.870392	-144.5905
6000.000000	86.967316	-140.1756
6150.000000	88.196922	-146.6506
6300.000000	88.261429	-153.5265
6500.000000	87.920624	-158.2737
6700.000000	87.258415	-160.6269
6900.000000	86.547043	-159.8300
7100.000000	86.039108	-156.7567
7300.000000	85.824402	-152.6429
7500.000000	85.879700	-148.3649
7750.000000	86.316010	-143.6412
8000.000000	87.120216	-141.0882
8250.000000	88.084084	-142.2955
8500.000000	88.765137	-147.7961
8750.000000	88.752792	-155.1692
9000.000000	88.153252	-160.6182
9250.000000	87.421066	-162.8423
9500.000000	86.970612	-163.3047
9750.000000	86.780487	-165.2676
10000.000000	86.321716	-169.3522
10300.000000	85.273819	-171.9456
10600.000000	84.386528	-170.8800
10900.000000	83.957901	-168.6537
11200.000000	83.998329	-167.0209
11500.000000	84.444351	-167.4581
11800.000000	85.165108	-171.1508
12200.000000	86.042023	177.0093
12500.000000	86.137833	164.4062
12800.000000	85.659271	151.7358
13200.000000	84.621033	136.7572
13600.000000	83.393532	122.4238
14000.000000	81.775803	109.1099
14500.000000	79.948097	96.1294
15000.000000	78.740829	80.3613
15500.000000	77.587051	61.4625
16000.000000	77.111801	32.1263
16500.000000	74.917595	-3.0777
17000.000000	72.871513	-31.9871
17500.000000	72.211540	-63.7861
18000.000000	72.528542	-107.1312
18500.000000	72.247093	-165.1364
19000.000000	70.647865	128.3824
19500.000000	68.475182	54.0355
