* Measurement data measured by REW V5.20 Beta 37
* Source: IEC-711 (3- USB Sound Device        ), MICROPHONE (Master Volume), R, volume: 0.250
* Format: 512k Log Swept Sine, 1 sweep at 0.0 dBFS With no timing reference
* Dated: Mar 24, 2020 4:05:01 PM
* REW Settings:
*  C-weighting compensation: Off
*  Target level: 75.0 dB
* Note: ; 
* Measurement: FL x Crinacle Dawn - R
* Smoothing: 1/48 octave
* Frequency Step: 1/24 octave
* Start Frequency: 20.600 Hz
*
* Freq(Hz)	SPL(dB)	Phase(degrees)
20.600000	88.164162	27.1594
21.200001	88.200951	26.5762
21.799999	88.211769	26.0128
22.400000	88.209900	25.4097
23.000000	88.202179	24.7297
23.600000	88.190331	23.9932
24.299999	88.180641	23.1464
25.000000	88.190559	22.3186
25.799999	88.216347	21.3275
26.500000	88.232597	20.5160
27.200001	88.248749	19.8468
28.000000	88.270561	19.1585
29.000000	88.275322	18.3647
30.000000	88.265457	17.7033
30.700001	88.255920	17.2132
31.500000	88.235596	16.6164
32.500000	88.205864	15.8695
33.500000	88.179649	15.1332
34.500000	88.161438	14.4387
35.500000	88.147675	13.7970
36.500000	88.134636	13.2235
37.500000	88.115059	12.6919
38.700001	88.080124	12.1124
40.000000	88.027840	11.4820
41.200001	87.973541	10.9503
42.500000	87.927322	10.3678
43.700001	87.891045	9.8034
45.000000	87.845757	9.1949
46.200001	87.795670	8.7545
47.500000	87.740677	8.3337
48.700001	87.685318	7.9983
50.000000	87.622322	7.5913
51.500000	87.545868	7.1467
53.000000	87.462166	6.6669
54.500000	87.387863	6.2764
56.000000	87.305733	5.9712
58.000000	87.215347	5.6665
60.000000	87.152718	5.2579
61.500000	87.021118	4.9945
63.000000	86.933838	4.9102
65.000000	86.807671	4.6699
67.000000	86.697937	4.5068
69.000000	86.581581	4.2757
71.000000	86.452309	4.1890
73.000000	86.328369	4.1777
75.000000	86.208382	4.2003
77.500000	86.066574	4.2221
80.000000	85.924805	4.3139
82.500000	85.770477	4.4715
85.000000	85.611221	4.6710
87.500000	85.456032	4.9663
90.000000	85.317841	5.2257
92.500000	85.175552	5.5917
95.000000	85.029259	5.9496
97.500000	84.881523	6.3497
100.000000	84.735207	6.8233
103.000000	84.577286	7.3401
106.000000	84.418091	7.9947
109.000000	84.251717	8.7299
112.000000	84.110573	9.5608
115.000000	83.962578	10.3437
118.000000	83.806038	11.0558
122.000000	83.630836	12.3182
125.000000	83.519524	13.0931
128.000000	83.386108	13.9940
132.000000	83.221161	15.2539
136.000000	83.070419	16.5055
140.000000	82.939629	17.8574
145.000000	82.777817	19.4715
150.000000	82.626190	21.0597
155.000000	82.500877	22.7683
160.000000	82.368835	24.3970
165.000000	82.248276	25.9753
170.000000	82.155151	27.5962
175.000000	82.056175	29.4282
180.000000	81.956787	30.9648
185.000000	81.888641	32.6027
190.000000	81.816437	34.1962
195.000000	81.743820	35.6076
200.000000	81.686096	37.2633
206.000000	81.621552	39.0635
212.000000	81.561592	40.8832
218.000000	81.513573	42.5297
224.000000	81.454857	44.1823
230.000000	81.413918	46.0018
236.000000	81.354523	47.6207
243.000000	81.316734	49.4748
250.000000	81.293037	51.3483
258.000000	81.255829	53.3312
265.000000	81.218704	55.1149
272.000000	81.183853	56.7997
280.000000	81.158943	58.6320
290.000000	81.113152	61.0059
300.000000	81.058823	63.1777
307.000000	81.044708	64.8415
315.000000	81.029518	66.6597
325.000000	80.988914	68.7742
335.000000	80.949646	70.9352
345.000000	80.928879	72.9701
355.000000	80.891655	75.0125
365.000000	80.868881	77.0101
375.000000	80.829575	79.0360
387.000000	80.793907	81.3277
400.000000	80.736580	83.8317
412.000000	80.702164	86.2578
425.000000	80.658371	88.6538
437.000000	80.619003	90.9268
450.000000	80.571655	93.2745
462.000000	80.541779	95.4816
475.000000	80.505997	97.8236
487.000000	80.469376	100.0183
500.000000	80.423187	102.3123
515.000000	80.369270	105.0071
530.000000	80.335953	107.6847
545.000000	80.300606	110.2515
560.000000	80.241211	112.8800
580.000000	80.175133	116.2835
600.000000	80.116364	119.8572
615.000000	80.081169	122.4828
630.000000	80.057510	125.0391
650.000000	80.004921	128.2876
670.000000	79.946808	131.7999
690.000000	79.913872	135.1144
710.000000	79.887138	138.4936
730.000000	79.841278	141.9014
750.000000	79.804214	145.3408
775.000000	79.783768	149.6322
800.000000	79.758163	153.8773
825.000000	79.728867	158.1635
850.000000	79.746826	162.4196
875.000000	79.769264	166.7403
900.000000	79.795036	170.9818
925.000000	79.844566	175.3859
950.000000	79.909866	179.6471
975.000000	80.030373	-176.0720
1000.000000	80.179192	-171.5526
1030.000000	80.326645	-167.0311
1060.000000	80.539116	-162.3159
1090.000000	80.791199	-157.8545
1120.000000	81.052872	-153.6339
1150.000000	81.329773	-149.6684
1180.000000	81.615105	-145.9273
1220.000000	81.980263	-141.5076
1250.000000	82.230164	-138.4666
1280.000000	82.475029	-135.5333
1320.000000	82.768723	-131.8615
1360.000000	83.031502	-128.2822
1400.000000	83.267632	-124.8526
1450.000000	83.532532	-120.5463
1500.000000	83.789230	-116.1234
1550.000000	84.057724	-111.7923
1600.000000	84.327415	-107.4818
1650.000000	84.625366	-103.2053
1700.000000	84.947983	-99.0873
1750.000000	85.297523	-95.2393
1800.000000	85.671043	-91.6287
1850.000000	86.055649	-88.4442
1900.000000	86.441505	-85.7923
1950.000000	86.805321	-83.5137
2000.000000	87.108910	-81.7336
2060.000000	87.428482	-79.9059
2120.000000	87.634628	-78.3910
2180.000000	87.748672	-76.8757
2240.000000	87.789513	-75.1217
2300.000000	87.793266	-73.1568
2360.000000	87.763756	-70.9237
2430.000000	87.744881	-68.0756
2500.000000	87.744858	-65.1569
2580.000000	87.777382	-61.9854
2650.000000	87.813072	-59.5573
2720.000000	87.818954	-57.4801
2800.000000	87.745827	-55.5817
2900.000000	87.459671	-53.3349
3000.000000	86.938011	-50.1711
3070.000000	86.542175	-46.7873
3150.000000	86.118469	-41.7992
3250.000000	85.787964	-34.3423
3350.000000	85.723114	-26.6331
3450.000000	85.881485	-19.3467
3550.000000	86.205635	-12.7892
3650.000000	86.660530	-7.2890
3750.000000	87.212097	-3.0986
3870.000000	87.905838	0.0540
4000.000000	88.549484	0.8771
4120.000000	88.870026	-0.3558
4250.000000	88.804932	-2.5355
4370.000000	88.377945	-4.1855
4500.000000	87.630905	-4.4223
4620.000000	86.837784	-3.1064
4750.000000	85.995422	-0.0909
4870.000000	85.304802	3.7125
5000.000000	84.671005	8.6678
5150.000000	84.127831	15.1259
5300.000000	83.780533	21.9229
5450.000000	83.707474	28.5841
5600.000000	84.000229	34.6648
5800.000000	84.865814	35.5759
6000.000000	84.254135	29.2264
6150.000000	82.612625	31.9961
6300.000000	81.937653	41.1956
6500.000000	82.056564	50.7236
6700.000000	82.534393	56.9966
6900.000000	83.160652	60.8549
7100.000000	83.924164	62.4174
7300.000000	84.756409	61.5221
7500.000000	85.609894	57.7113
7750.000000	86.395103	48.1978
8000.000000	86.365494	35.3441
8250.000000	85.920601	21.9730
8500.000000	84.068260	10.3676
8750.000000	82.410240	6.7753
9000.000000	81.246048	5.3752
9250.000000	80.530975	4.4289
9500.000000	80.267136	3.1802
9750.000000	80.502747	-0.1376
10000.000000	81.058777	-7.7858
10300.000000	81.478004	-25.1011
10600.000000	80.509766	-47.9064
10900.000000	78.004341	-66.6097
11200.000000	74.905518	-76.6437
11500.000000	72.081825	-79.8218
11800.000000	69.780853	-78.4278
12200.000000	67.649399	-72.4629
12500.000000	67.077156	-65.9103
12800.000000	67.370163	-60.9938
13200.000000	68.658386	-60.2262
13600.000000	70.660332	-66.2700
14000.000000	73.197342	-80.1614
14500.000000	76.167526	-119.1891
15000.000000	74.262024	-168.1794
15500.000000	71.308517	167.2620
16000.000000	69.660393	148.4818
16500.000000	68.912895	126.3613
17000.000000	67.676010	98.2339
17500.000000	65.396118	72.0063
18000.000000	62.785553	50.7667
18500.000000	60.637257	34.6728
19000.000000	58.845135	17.1778
19500.000000	57.724960	-1.4144
