* Measurement data measured by REW V5.20
* Source: Headset (USB-C to 3.5mm Headphone Jack Adapter), MICROPHONE (Master Volume), R, volume: 0.260. Timing signal peak level -64.7 dBFS, measurement signal peak level -27.1 dBFS
* Format: 512k Log Swept Sine, 1 sweep at 0.0 dBFS using an acoustic timing reference
* Dated: Dec 23, 2021 7:54:42 PM
* REW Settings:
*  C-weighting compensation: Off
*  Target level: 75.0 dB
* Note: ; Delay -0.0541 ms (-19 mm, -0.73 in) using estimated IR delay relative to Acoustic reference on HEADPHONE R with no timing offset
* Measurement: ZEX PRO L
* Smoothing: 1/48 octave
* Frequency Step: 1/24 octave
* Start Frequency: 20.600 Hz
*
* Freq(Hz)	SPL(dB)	Phase(degrees)
20.600000	91.113731	-143.9416
21.200001	91.134789	-145.5396
21.799999	91.129181	-147.0212
22.400000	91.103973	-148.6129
23.000000	91.082169	-150.2282
23.600000	91.057869	-151.6440
24.299999	91.006493	-153.1359
25.000000	90.943390	-154.6659
25.799999	90.880890	-156.3688
26.500000	90.820305	-157.7212
27.200001	90.749924	-159.0336
28.000000	90.669456	-160.5296
29.000000	90.566071	-162.2748
30.000000	90.464180	-163.8956
30.700001	90.394417	-165.0031
31.500000	90.299675	-166.3240
32.500000	90.199829	-167.7265
33.500000	90.105309	-169.0112
34.500000	90.000824	-170.3161
35.500000	89.902893	-171.5125
36.500000	89.795494	-172.6582
37.500000	89.696587	-173.8037
38.700001	89.577240	-175.0402
40.000000	89.448143	-176.3237
41.200001	89.334930	-177.4264
42.500000	89.202911	-178.5535
43.700001	89.093292	-179.5188
45.000000	88.973877	179.4963
46.200001	88.861023	178.6215
47.500000	88.740761	177.7411
48.700001	88.635696	176.9772
50.000000	88.517975	176.1913
51.500000	88.392395	175.3782
53.000000	88.261612	174.5791
54.500000	88.138550	173.8201
56.000000	88.015381	173.1772
58.000000	87.860199	172.3300
60.000000	87.707176	171.4647
61.500000	87.599731	171.0414
63.000000	87.482437	170.5560
65.000000	87.351547	169.9221
67.000000	87.207497	169.4219
69.000000	87.072899	168.9469
71.000000	86.944839	168.4323
73.000000	86.808167	168.0270
75.000000	86.684464	167.7628
77.500000	86.536690	167.3828
80.000000	86.389938	167.0383
82.500000	86.251472	166.6107
85.000000	86.112839	166.3681
87.500000	85.990990	166.1810
90.000000	85.838608	165.8410
92.500000	85.741898	165.8859
95.000000	85.614433	165.7291
97.500000	85.506477	165.6555
100.000000	85.398170	165.5023
103.000000	85.273682	165.4726
106.000000	85.160568	165.4521
109.000000	85.049355	165.4604
112.000000	84.944473	165.4697
115.000000	84.843643	165.4879
118.000000	84.749855	165.5692
122.000000	84.624367	165.6625
125.000000	84.541359	165.7719
128.000000	84.457520	165.8725
132.000000	84.351379	166.0303
136.000000	84.249283	166.1964
140.000000	84.155045	166.4033
145.000000	84.040512	166.6774
150.000000	83.932106	166.9644
155.000000	83.831619	167.2646
160.000000	83.734848	167.5776
165.000000	83.644318	167.9077
170.000000	83.557426	168.2284
175.000000	83.477585	168.5779
180.000000	83.401474	168.8969
185.000000	83.327438	169.2728
190.000000	83.259186	169.6335
195.000000	83.191193	169.9868
200.000000	83.128738	170.3465
206.000000	83.059738	170.7725
212.000000	82.992134	171.2069
218.000000	82.929276	171.6407
224.000000	82.871613	172.0729
230.000000	82.815186	172.4937
236.000000	82.759933	172.9282
243.000000	82.703102	173.4203
250.000000	82.648781	173.9129
258.000000	82.589775	174.4744
265.000000	82.542137	174.9625
272.000000	82.494507	175.4529
280.000000	82.447281	175.9950
290.000000	82.390770	176.6649
300.000000	82.337753	177.3408
307.000000	82.305244	177.7938
315.000000	82.269608	178.3210
325.000000	82.225723	178.9584
335.000000	82.187782	179.6010
345.000000	82.151176	-179.7662
355.000000	82.115738	-179.1427
365.000000	82.085022	-178.5204
375.000000	82.057236	-177.9101
387.000000	82.024353	-177.1924
400.000000	81.992371	-176.4079
412.000000	81.964622	-175.7086
425.000000	81.938934	-174.9487
437.000000	81.917892	-174.2464
450.000000	81.895996	-173.5017
462.000000	81.877792	-172.8286
475.000000	81.859375	-172.0802
487.000000	81.844795	-171.4093
500.000000	81.829758	-170.6823
515.000000	81.814774	-169.8466
530.000000	81.802574	-169.0076
545.000000	81.792130	-168.1741
560.000000	81.784355	-167.3444
580.000000	81.776772	-166.2311
600.000000	81.772552	-165.1220
615.000000	81.770157	-164.2846
630.000000	81.771820	-163.4499
650.000000	81.778084	-162.3204
670.000000	81.787529	-161.1924
690.000000	81.800720	-160.0546
710.000000	81.819885	-158.9142
730.000000	81.844421	-157.7628
750.000000	81.872238	-156.6003
775.000000	81.917671	-155.1269
800.000000	81.976250	-153.5580
825.000000	82.084213	-152.2694
850.000000	82.104492	-150.8824
875.000000	82.212814	-149.2430
900.000000	82.335281	-147.8254
925.000000	82.465347	-146.4835
950.000000	82.605415	-145.2137
975.000000	82.757263	-144.0102
1000.000000	82.920784	-142.9128
1030.000000	83.124382	-141.7281
1060.000000	83.337051	-140.6958
1090.000000	83.549484	-139.8332
1120.000000	83.760071	-139.1236
1150.000000	83.965317	-138.5500
1180.000000	84.161140	-138.1068
1220.000000	84.404434	-137.6749
1250.000000	84.572502	-137.4453
1280.000000	84.727936	-137.2649
1320.000000	84.915611	-137.1020
1360.000000	85.083420	-136.9711
1400.000000	85.232841	-136.8710
1450.000000	85.399185	-136.7440
1500.000000	85.545235	-136.6147
1550.000000	85.675949	-136.4524
1600.000000	85.793442	-136.2766
1650.000000	85.900307	-136.0643
1700.000000	85.999405	-135.8286
1750.000000	86.091614	-135.5732
1800.000000	86.178505	-135.2989
1850.000000	86.259537	-135.0009
1900.000000	86.338005	-134.6795
1950.000000	86.412598	-134.3466
2000.000000	86.485695	-133.9981
2060.000000	86.570168	-133.5561
2120.000000	86.651611	-133.0947
2180.000000	86.732224	-132.6145
2240.000000	86.812492	-132.1178
2300.000000	86.892700	-131.6041
2360.000000	86.975403	-131.0707
2430.000000	87.072983	-130.4423
2500.000000	87.175140	-129.8068
2580.000000	87.298889	-129.0797
2650.000000	87.414650	-128.4521
2720.000000	87.535973	-127.8579
2800.000000	87.684570	-127.2151
2900.000000	87.883003	-126.5079
3000.000000	88.095757	-125.9464
3070.000000	88.250130	-125.6533
3150.000000	88.432274	-125.4429
3250.000000	88.662476	-125.3850
3350.000000	88.890755	-125.5792
3450.000000	89.107887	-126.0413
3550.000000	89.307686	-126.7821
3650.000000	89.480827	-127.7840
3750.000000	89.617874	-129.0394
3870.000000	89.723740	-130.8295
4000.000000	89.750061	-133.0375
4120.000000	89.680176	-135.2196
4250.000000	89.490891	-137.5849
4370.000000	89.200272	-139.5960
4500.000000	88.752693	-141.3300
4620.000000	88.218597	-142.1398
4750.000000	87.557434	-141.5333
4870.000000	87.021271	-139.2094
5000.000000	86.733459	-135.7252
5150.000000	86.716644	-132.8838
5300.000000	86.698944	-131.7026
5450.000000	86.557854	-131.0094
5600.000000	86.327820	-130.1842
5800.000000	85.809174	-128.7025
6000.000000	85.767517	-120.5467
6150.000000	86.036514	-120.5281
6300.000000	86.035355	-119.2145
6500.000000	86.168434	-116.8162
6700.000000	86.490509	-114.7908
6900.000000	86.986481	-113.8197
7100.000000	87.621071	-114.5029
7300.000000	88.316750	-117.6418
7500.000000	88.874199	-123.7629
7750.000000	88.997566	-134.8741
8000.000000	88.207985	-146.5676
8250.000000	86.723740	-155.1360
8500.000000	84.967545	-159.8241
8750.000000	83.166336	-161.1523
9000.000000	81.351685	-159.8176
9250.000000	79.321381	-153.2332
9500.000000	78.717918	-131.7384
9750.000000	82.498993	-130.3134
10000.000000	82.290588	-149.8266
10300.000000	80.562538	-158.1872
10600.000000	79.075264	-162.7808
10900.000000	77.352043	-166.4931
11200.000000	75.397507	-166.5482
11500.000000	73.731987	-163.3268
11800.000000	72.419083	-159.4675
12200.000000	71.051353	-153.8516
12500.000000	70.309448	-150.0328
12800.000000	69.794670	-146.4728
13200.000000	69.466454	-143.2307
13600.000000	69.589462	-141.4109
14000.000000	70.251297	-141.8776
14500.000000	72.018959	-146.8519
15000.000000	75.172043	-160.8715
15500.000000	79.383286	164.5937
16000.000000	80.651901	103.2451
16500.000000	77.996666	45.6454
17000.000000	73.435059	15.5789
17500.000000	73.975662	-26.4540
18000.000000	71.779381	-89.4921
18500.000000	67.643791	-154.7465
19000.000000	62.897079	139.9122
19500.000000	59.641701	58.5136
