* Measurement data measured by REW V5.19
* Source: Microphone (2- USB Sound Device        ), no input selected, R, volume: no control
* Format: 1M Log Swept Sine, 1 sweep at -20.0 dBFS  With no timing reference
* Dated: Apr 27, 2019 11:19:52 AM
* REW Settings:
*  C-weighting compensation: Off
*  Target level: 75.0 dB
* Note: ; 
* Measurement: KZ ZS10 Pro - L
* Smoothing: 1/48 octave
* Frequency Step: 1/24 octave
* Start Frequency: 20.000 Hz
*
* Freq(Hz)	SPL(dB)	Phase(degrees)
20.000000	2.206270	-149.3602
20.600000	2.313452	-150.2936
21.200001	2.385914	-151.0823
21.799999	2.436254	-151.8805
22.400000	2.467755	-152.7288
23.000000	2.490649	-153.5976
23.600000	2.517749	-154.4948
24.299999	2.557063	-155.6120
25.000000	2.597322	-156.7482
25.799999	2.647323	-157.9521
26.500000	2.697960	-158.9149
27.200001	2.748396	-159.8042
28.000000	2.801022	-160.7213
29.000000	2.855931	-161.7826
30.000000	2.891072	-162.7877
30.700001	2.910291	-163.4695
31.500000	2.929876	-164.2816
32.500000	2.947038	-165.3256
33.500000	2.964473	-166.3311
34.500000	2.989106	-167.2809
35.500000	3.019582	-168.1868
36.500000	3.045320	-169.0411
37.500000	3.067425	-169.8101
38.700001	3.090124	-170.7249
40.000000	3.100312	-171.6947
41.200001	3.110782	-172.5719
42.500000	3.124808	-173.5255
43.700001	3.139774	-174.3899
45.000000	3.152202	-175.2731
46.200001	3.160778	-176.0244
47.500000	3.166440	-176.7908
48.700001	3.171914	-177.4850
50.000000	3.175819	-178.2567
51.500000	3.177396	-179.1435
53.000000	3.177938	-179.9752
54.500000	3.180638	179.2216
56.000000	3.183308	178.4243
58.000000	3.171079	177.4305
60.000000	3.163271	176.4227
61.500000	3.159930	175.7514
63.000000	3.154535	175.0484
65.000000	3.148191	174.1550
67.000000	3.134573	173.2751
69.000000	3.121737	172.4296
71.000000	3.106105	171.6069
73.000000	3.089250	170.8040
75.000000	3.071827	170.0056
77.500000	3.047356	169.0579
80.000000	3.027274	168.1473
82.500000	3.001110	167.2523
85.000000	2.976230	166.3769
87.500000	2.945870	165.5355
90.000000	2.916291	164.7213
92.500000	2.884532	163.9385
95.000000	2.853983	163.1389
97.500000	2.818479	162.3867
100.000000	2.783894	161.6590
103.000000	2.740490	160.7849
106.000000	2.697748	159.9583
109.000000	2.654228	159.1422
112.000000	2.610066	158.3550
115.000000	2.563873	157.5735
118.000000	2.516760	156.8409
122.000000	2.454726	155.9008
125.000000	2.405748	155.2029
128.000000	2.358248	154.5268
132.000000	2.295522	153.6565
136.000000	2.231643	152.8109
140.000000	2.167132	151.9956
145.000000	2.084574	151.0204
150.000000	2.004997	150.0862
155.000000	1.923365	149.2094
160.000000	1.843816	148.3446
165.000000	1.765614	147.5079
170.000000	1.686338	146.7205
175.000000	1.607334	145.9731
180.000000	1.530481	145.2332
185.000000	1.455755	144.5164
190.000000	1.380458	143.8292
195.000000	1.305814	143.1618
200.000000	1.232863	142.5335
206.000000	1.145678	141.7947
212.000000	1.060859	141.0721
218.000000	0.975395	140.3829
224.000000	0.896872	139.7194
230.000000	0.814309	139.0685
236.000000	0.734342	138.4530
243.000000	0.642735	137.7421
250.000000	0.549593	137.0673
258.000000	0.448640	136.3099
265.000000	0.360871	135.6735
272.000000	0.275144	135.0685
280.000000	0.178649	134.3823
290.000000	0.059244	133.5582
300.000000	-0.057057	132.7723
307.000000	-0.137638	132.2558
315.000000	-0.227767	131.6702
325.000000	-0.341853	130.9600
335.000000	-0.453180	130.2909
345.000000	-0.565417	129.6609
355.000000	-0.672008	129.0368
365.000000	-0.777631	128.4501
375.000000	-0.882295	127.9001
387.000000	-1.010283	127.2811
400.000000	-1.140999	126.6398
412.000000	-1.262934	126.0951
425.000000	-1.389061	125.5432
437.000000	-1.507808	125.0784
450.000000	-1.628421	124.6197
462.000000	-1.738228	124.2338
475.000000	-1.854216	123.8519
487.000000	-1.959994	123.5204
500.000000	-2.070048	123.2199
515.000000	-2.193025	122.9130
530.000000	-2.311260	122.6390
545.000000	-2.423328	122.4073
560.000000	-2.528619	122.2375
580.000000	-2.664304	122.0538
600.000000	-2.794315	121.9108
615.000000	-2.885494	121.8759
630.000000	-2.973538	121.8343
650.000000	-3.083552	121.8421
670.000000	-3.183606	121.9141
690.000000	-3.278755	122.0033
710.000000	-3.374606	122.1585
730.000000	-3.462842	122.3546
750.000000	-3.562210	122.6233
775.000000	-3.734230	123.3678
800.000000	-3.721478	125.5961
825.000000	-3.592079	125.5523
850.000000	-3.664791	126.1478
875.000000	-3.644913	127.5860
900.000000	-3.505008	128.7839
925.000000	-3.343075	129.5618
950.000000	-3.189822	130.1723
975.000000	-3.035520	130.7281
1000.000000	-2.855255	131.2877
1030.000000	-2.638643	131.8977
1060.000000	-2.382427	132.3996
1090.000000	-2.100942	132.7264
1120.000000	-1.797803	132.8654
1150.000000	-1.485143	132.7880
1180.000000	-1.165645	132.5072
1220.000000	-0.747686	131.8317
1250.000000	-0.440815	131.1559
1280.000000	-0.141982	130.3495
1320.000000	0.237785	129.1686
1360.000000	0.601876	127.8853
1400.000000	0.957395	126.5554
1450.000000	1.394032	124.8401
1500.000000	1.831018	123.0588
1550.000000	2.273895	121.1890
1600.000000	2.728318	119.2195
1650.000000	3.196411	117.0926
1700.000000	3.675643	114.7560
1750.000000	4.167333	112.1694
1800.000000	4.663568	109.2867
1850.000000	5.160712	106.0627
1900.000000	5.649392	102.4441
1950.000000	6.115951	98.3888
2000.000000	6.545377	93.9096
2060.000000	6.986152	87.9633
2120.000000	7.318644	81.5338
2180.000000	7.518912	74.7978
2240.000000	7.577779	68.0043
2300.000000	7.496878	61.4371
2360.000000	7.294967	55.3219
2430.000000	6.944635	48.9728
2500.000000	6.515512	43.5525
2580.000000	5.980103	38.4729
2650.000000	5.509623	34.9163
2720.000000	5.057950	32.0710
2800.000000	4.577647	29.5399
2900.000000	4.049870	27.2507
3000.000000	3.606408	25.7236
3070.000000	3.348461	25.0684
3150.000000	3.112538	24.6819
3250.000000	2.930095	24.6417
3350.000000	2.881493	24.8018
3450.000000	2.956546	24.8927
3550.000000	3.137083	24.8169
3650.000000	3.414463	24.4622
3750.000000	3.787924	23.7149
3870.000000	4.357959	22.0564
4000.000000	5.106885	18.8279
4120.000000	5.860861	13.8786
4250.000000	6.585756	5.6616
4370.000000	6.908148	-4.6677
4500.000000	6.568638	-17.2483
4620.000000	5.536039	-27.3014
4750.000000	3.856124	-33.5081
4870.000000	2.206552	-32.8116
5000.000000	1.388145	-25.6651
5150.000000	1.981285	-24.4942
5300.000000	1.575277	-30.2506
5450.000000	0.501560	-30.8189
5600.000000	-0.157052	-29.6494
5800.000000	-0.985387	-25.6732
6000.000000	-1.375838	-20.5609
6150.000000	-1.458542	-16.7729
6300.000000	-1.404993	-13.1891
6500.000000	-1.153113	-8.6826
6700.000000	-0.664460	-4.5436
6900.000000	0.114521	-1.1921
7100.000000	1.215071	0.3769
7300.000000	2.607128	-1.2899
7500.000000	4.058126	-8.6008
7750.000000	4.783106	-26.9335
8000.000000	3.308063	-43.9736
8250.000000	0.951678	-50.1403
8500.000000	-1.104828	-48.5188
8750.000000	-2.626076	-42.9520
9000.000000	-3.534270	-35.4763
9250.000000	-4.042843	-27.5786
9500.000000	-4.079543	-19.7449
9750.000000	-3.697185	-13.0338
10000.000000	-3.006626	-8.3455
10300.000000	-1.480753	-4.8980
10600.000000	-0.300071	-16.0087
10900.000000	-1.088624	-29.3273
11200.000000	-3.232468	-34.6212
11500.000000	-5.384980	-30.7244
11800.000000	-6.863624	-21.7208
12200.000000	-7.689333	-8.0662
12500.000000	-7.587544	0.0868
12800.000000	-7.237236	4.1696
13200.000000	-7.223059	3.8503
13600.000000	-8.168030	2.7327
14000.000000	-9.692701	5.5554
14500.000000	-11.419552	16.8436
15000.000000	-11.806862	30.7784
15500.000000	-11.462468	37.6001
16000.000000	-11.491629	39.4968
16500.000000	-12.259953	40.1292
17000.000000	-13.373131	45.3655
17500.000000	-13.876814	50.0739
18000.000000	-15.063328	52.2074
18500.000000	-13.835412	55.4704
19000.000000	-13.625153	34.8608
19500.000000	-16.207533	8.8011
